#Collected Data-257
#Intensity_unit=counts
#Attenuator_coefficient=1.000000
40.0000 47.3732
40.0500 25.1006
40.1000 22.3205
40.1500 30.4689
40.2000 27.9413
40.2500 34.0212
40.3000 28.4208
40.3500 19.7123
40.4000 21.8515
40.4500 30.1768
40.5000 26.4844
40.5500 20.4355
40.6000 36.2799
40.6500 31.1850
40.7000 25.4398
40.7500 27.1146
40.8000 27.1002
40.8500 29.9249
40.9000 25.8814
40.9500 30.0391
41.0000 37.2239
41.0500 38.3152
41.1000 31.7980
41.1500 37.0719
41.2000 41.2118
41.2500 27.0401
41.3000 34.4499
41.3500 32.8998
41.4000 35.7843
41.4500 32.2242
41.5000 33.7378
41.5500 32.8722
41.6000 25.1601
41.6500 32.7948
41.7000 31.8870
41.7500 26.9229
41.8000 20.5540
41.8500 42.2651
41.9000 31.0413
41.9500 23.7323
42.0000 24.8195
42.0500 38.5091
42.1000 23.4280
42.1500 34.9324
42.2000 31.0225
42.2500 38.9316
42.3000 18.9950
42.3500 30.7934
42.4000 26.2529
42.4500 31.6942
42.5000 27.0689
42.5500 25.1948
42.6000 27.6651
42.6500 15.7103
42.7000 31.1377
42.7500 25.2283
42.8000 36.1498
42.8500 26.1557
42.9000 32.1351
42.9500 27.3769
43.0000 32.3400
43.0500 36.9387
43.1000 33.1589
43.1500 30.5776
43.2000 33.2119
43.2500 31.9916
43.3000 31.2306
43.3500 33.1364
43.4000 34.3520
43.4500 37.0553
43.5000 29.5152
43.5500 40.0522
43.6000 32.7175
43.6500 44.3610
43.7000 45.4699
43.7500 35.2027
43.8000 55.2918
43.8500 40.3495
43.9000 49.6935
43.9500 48.2546
44.0000 56.3850
44.0500 59.7710
44.1000 76.5275
44.1500 107.5551
44.2000 121.3239
44.2500 190.5180
44.3000 288.4092
44.3500 500.4448
44.4000 776.0289
44.4500 937.5128
44.5000 899.5861
44.5500 728.3351
44.6000 471.3834
44.6500 327.2594
44.7000 160.9320
44.7500 102.2017
44.8000 90.2937
44.8500 78.5532
44.9000 63.9044
44.9500 45.6752
45.0000 45.4377
45.0500 41.4363
45.1000 31.8508
45.1500 32.7215
45.2000 35.2830
45.2500 36.3697
45.3000 39.3673
45.3500 33.2275
45.4000 38.3958
45.4500 40.1846
45.5000 28.3761
45.5500 30.4548
45.6000 22.3225
45.6500 32.5738
45.7000 20.3557
45.7500 23.3655
45.8000 32.9381
45.8500 37.1008
45.9000 26.8870
45.9500 32.6886
46.0000 29.2128
46.0500 27.7564
46.1000 24.2715
46.1500 23.7685
46.2000 32.0855
46.2500 29.1542
46.3000 31.0094
46.3500 24.2073
46.4000 31.0865
46.4500 26.3103
46.5000 33.4094
46.5500 27.3696
46.6000 23.6595
46.6500 27.6569
46.7000 27.3067
46.7500 28.5108
46.8000 28.7877
46.8500 22.8587
46.9000 29.6234
46.9500 28.4559
47.0000 32.6865
47.0500 30.7193
47.1000 28.0981
47.1500 32.9105
47.2000 27.7124
47.2500 21.5085
47.3000 22.8327
47.3500 18.8018
47.4000 21.5362
47.4500 26.6654
47.5000 22.9816
47.5500 18.9445
47.6000 31.3539
47.6500 16.2472
47.7000 25.6741
47.7500 21.1178
47.8000 24.9622
47.8500 23.8058
47.9000 28.0079
47.9500 30.4632
48.0000 22.3807
48.0500 31.1052
48.1000 23.5101
48.1500 34.3041
48.2000 23.0677
48.2500 25.3304
48.3000 19.3077
48.3500 33.7732
48.4000 20.9206
48.4500 25.9365
48.5000 35.4515
48.5500 22.2059
48.6000 21.6922
48.6500 29.4726
48.7000 19.9044
48.7500 24.2977
48.8000 21.3157
48.8500 35.4685
48.9000 35.3125
48.9500 26.2193
49.0000 26.5038
49.0500 23.2008
49.1000 25.3732
49.1500 17.9129
49.2000 31.8179
49.2500 25.6336
49.3000 26.9154
49.3500 29.0959
49.4000 29.7724
49.4500 24.3381
49.5000 31.0952
49.5500 33.4907
49.6000 31.3555
49.6500 29.2961
49.7000 25.9367
49.7500 36.3102
49.8000 31.2470
49.8500 17.3280
49.9000 22.3183
49.9500 20.3601
50.0000 23.5670
50.0500 25.3092
50.1000 29.2125
50.1500 25.7695
50.2000 25.7466
50.2500 25.6207
50.3000 23.1338
50.3500 25.1138
50.4000 32.1501
50.4500 29.8011
50.5000 28.7976
50.5500 28.8880
50.6000 30.8260
50.6500 31.7376
50.7000 25.0492
50.7500 18.3906
50.8000 24.1244
50.8500 23.3025
50.9000 27.7418
50.9500 20.7218
51.0000 21.2320
51.0500 29.3220
51.1000 25.8383
51.1500 22.1687
51.2000 17.9559
51.2500 23.5948
51.3000 31.1779
51.3500 28.4174
51.4000 20.4348
51.4500 22.3660
51.5000 21.8137
51.5500 29.7010
51.6000 36.1527
51.6500 31.2260
51.7000 19.0317
51.7500 27.6408
51.8000 30.6129
51.8500 24.7604
51.9000 23.9067
51.9500 16.9553
52.0000 27.7687
52.0500 23.7675
52.1000 26.3858
52.1500 25.7420
52.2000 22.7547
52.2500 25.2776
52.3000 22.9144
52.3500 17.3130
52.4000 20.6949
52.4500 32.1073
52.5000 18.4578
52.5500 25.4716
52.6000 18.9005
52.6500 19.3318
52.7000 35.9505
52.7500 29.9480
52.8000 30.6111
52.8500 26.8038
52.9000 17.1201
52.9500 18.1302
53.0000 23.8459
53.0500 21.3611
53.1000 26.4455
53.1500 28.4048
53.2000 18.5257
53.2500 17.4364
53.3000 27.5047
53.3500 19.6753
53.4000 28.6737
53.4500 29.1430
53.5000 25.3853
53.5500 21.5501
53.6000 27.0478
53.6500 26.1318
53.7000 17.4020
53.7500 21.9054
53.8000 26.8983
53.8500 21.4208
53.9000 20.2357
53.9500 28.5969
54.0000 19.4376
54.0500 22.5885
54.1000 23.6273
54.1500 18.4401
54.2000 27.5820
54.2500 32.5936
54.3000 24.1776
54.3500 24.7778
54.4000 26.2958
54.4500 21.0191
54.5000 22.7794
54.5500 18.3648
54.6000 23.9426
54.6500 26.1416
54.7000 25.3910
54.7500 23.6408
54.8000 30.5550
54.8500 26.1128
54.9000 21.9711
54.9500 13.4752
55.0000 23.8989
55.0500 29.1256
55.1000 21.7233
55.1500 20.8764
55.2000 22.3910
55.2500 20.1161
55.3000 27.5927
55.3500 30.3108
55.4000 22.4555
55.4500 23.6883
55.5000 25.3347
55.5500 23.3545
55.6000 14.5885
55.6500 22.9749
55.7000 21.9578
55.7500 24.8834
55.8000 15.0064
55.8500 25.9371
55.9000 23.0309
55.9500 17.2628
56.0000 22.0314
56.0500 19.9889
56.1000 26.5854
56.1500 24.0161
56.2000 13.6398
56.2500 30.3144
56.3000 26.6005
56.3500 20.1334
56.4000 22.1199
56.4500 22.9130
56.5000 21.1129
56.5500 30.9871
56.6000 21.8129
56.6500 30.9246
56.7000 23.9773
56.7500 33.7436
56.8000 23.3789
56.8500 14.2105
56.9000 29.0871
56.9500 22.8514
57.0000 21.1562
57.0500 26.8460
57.1000 30.6080
57.1500 17.7321
57.2000 21.0606
57.2500 43.9690
57.3000 31.3346
57.3500 23.8137
57.4000 25.1069
57.4500 21.8012
57.5000 18.5250
57.5500 23.6672
57.6000 18.4813
57.6500 27.5868
57.7000 21.1549
57.7500 29.5097
57.8000 18.1763
57.8500 25.5841
57.9000 28.9073
57.9500 28.0217
58.0000 22.3011
58.0500 28.8207
58.1000 25.9378
58.1500 16.6230
58.2000 17.2327
58.2500 27.6698
58.3000 25.8105
58.3500 29.8370
58.4000 18.9293
58.4500 23.0769
58.5000 29.4056
58.5500 25.0406
58.6000 26.5643
58.6500 22.8956
58.7000 23.8109
58.7500 19.7030
58.8000 19.7956
58.8500 18.8940
58.9000 22.0666
58.9500 26.9496
59.0000 17.8063
59.0500 26.7206
59.1000 25.8727
59.1500 17.3530
59.2000 14.3444
59.2500 19.8602
59.3000 17.4467
59.3500 23.1916
59.4000 14.0829
59.4500 29.5211
59.5000 26.1521
59.5500 23.7071
59.6000 24.1154
59.6500 23.2692
59.7000 21.3468
59.7500 18.3358
59.8000 21.6001
59.8500 24.2719
59.9000 25.8399
59.9500 23.9160
60.0000 13.3268
60.0500 20.2318
60.1000 21.2706
60.1500 28.1874
60.2000 21.3770
60.2500 25.4120
60.3000 30.5440
60.3500 26.3935
60.4000 30.3032
60.4500 30.2944
60.5000 19.3071
60.5500 24.5210
60.6000 21.7490
60.6500 27.4961
60.7000 14.5051
60.7500 25.2713
60.8000 16.1625
60.8500 22.0933
60.9000 26.9645
60.9500 20.9819
61.0000 30.1526
61.0500 20.3331
61.1000 24.0292
61.1500 28.0751
61.2000 19.6076
61.2500 17.7434
61.3000 13.6400
61.3500 18.5700
61.4000 22.8892
61.4500 19.2928
61.5000 24.6883
61.5500 15.7640
61.6000 19.3661
61.6500 25.0096
61.7000 20.8373
61.7500 18.7898
61.8000 22.6107
61.8500 17.5211
61.9000 21.8036
61.9500 15.0940
62.0000 27.8371
62.0500 25.9336
62.1000 28.3992
62.1500 17.3744
62.2000 20.9161
62.2500 16.3746
62.3000 25.0924
62.3500 26.5670
62.4000 26.0534
62.4500 20.9175
62.5000 25.9392
62.5500 17.5013
62.6000 22.6228
62.6500 20.3110
62.7000 17.0280
62.7500 24.6386
62.8000 21.3609
62.8500 24.8090
62.9000 26.8900
62.9500 19.8637
63.0000 24.7427
63.0500 26.3273
63.1000 22.5160
63.1500 18.9662
63.2000 20.3042
63.2500 22.3494
63.3000 23.7126
63.3500 30.2320
63.4000 23.3103
63.4500 23.4126
63.5000 25.3800
63.5500 24.7843
63.6000 30.1041
63.6500 31.4229
63.7000 26.7338
63.7500 26.9761
63.8000 27.9345
63.8500 19.8178
63.9000 23.5454
63.9500 23.4046
64.0000 23.5535
64.0500 30.7105
64.1000 29.4560
64.1500 35.8079
64.2000 27.7966
64.2500 39.5609
64.3000 37.6539
64.3500 42.0880
64.4000 36.6941
64.4500 43.7164
64.5000 69.0398
64.5500 62.6861
64.6000 55.5542
64.6500 43.8053
64.7000 41.6691
64.7500 61.5624
64.8000 45.9443
64.8500 32.6591
64.9000 29.2730
64.9500 31.4741
65.0000 21.1983
65.0500 18.4438
65.1000 26.7163
65.1500 21.5598
65.2000 30.3465
65.2500 26.5484
65.3000 32.6048
65.3500 17.5191
65.4000 26.4142
65.4500 35.1168
65.5000 22.5818
65.5500 20.2441
65.6000 22.4228
65.6500 16.4687
65.7000 15.5139
65.7500 21.6020
65.8000 22.0056
65.8500 30.1865
65.9000 24.5717
65.9500 16.2946
66.0000 32.2206
66.0500 25.4126
66.1000 24.6108
66.1500 27.4156
66.2000 24.4719
66.2500 17.9451
66.3000 26.7798
66.3500 20.9214
66.4000 22.2531
66.4500 21.1196
66.5000 36.0748
66.5500 22.5782
66.6000 20.5229
66.6500 18.9395
66.7000 19.7070
66.7500 23.4558
66.8000 20.7420
66.8500 19.0593
66.9000 16.4511
66.9500 21.7888
67.0000 30.8894
67.0500 20.1835
67.1000 23.6907
67.1500 22.9796
67.2000 30.1798
67.2500 25.4769
67.3000 18.5510
67.3500 26.6015
67.4000 21.4211
67.4500 20.5329
67.5000 20.2792
67.5500 22.5384
67.6000 29.0431
67.6500 18.1356
67.7000 17.0064
67.7500 22.5408
67.8000 23.5772
67.8500 18.0397
67.9000 20.5286
67.9500 35.1701
68.0000 32.1639
68.0500 24.7663
68.1000 18.8735
68.1500 20.7587
68.2000 22.7180
68.2500 28.7697
68.3000 26.2517
68.3500 32.3203
68.4000 22.8115
68.4500 25.5455
68.5000 20.5204
68.5500 22.6891
68.6000 22.1229
68.6500 24.9570
68.7000 33.4219
68.7500 25.8015
68.8000 20.5371
68.8500 14.7527
68.9000 22.2073
68.9500 30.6549
69.0000 28.9930
69.0500 30.0690
69.1000 15.2002
69.1500 23.8801
69.2000 15.4058
69.2500 21.1607
69.3000 24.6854
69.3500 23.4991
69.4000 17.7874
69.4500 24.1058
69.5000 23.8726
69.5500 28.6947
69.6000 20.0067
69.6500 23.6812
69.7000 28.0433
69.7500 14.6091
69.8000 28.0090
69.8500 19.3985
69.9000 17.7412
69.9500 17.7845
70.0000 20.1365
70.0500 15.8589
70.1000 25.0433
70.1500 21.4355
70.2000 22.2390
70.2500 19.5627
70.3000 18.8142
70.3500 27.6316
70.4000 27.1769
70.4500 20.6122
70.5000 17.0093
70.5500 24.6774
70.6000 23.4732
70.6500 19.7415
70.7000 24.1163
70.7500 22.8102
70.8000 21.4333
70.8500 18.7113
70.9000 14.7576
70.9500 22.2674
71.0000 23.1177
71.0500 27.4459
71.1000 24.9559
71.1500 20.4305
71.2000 19.2481
71.2500 18.0053
71.3000 26.7522
71.3500 24.1512
71.4000 18.3500
71.4500 23.4948
71.5000 25.8745
71.5500 21.2421
71.6000 32.7588
71.6500 24.0484
71.7000 34.1464
71.7500 26.2785
71.8000 18.6418
71.8500 17.6393
71.9000 21.4982
71.9500 21.3907
72.0000 21.9337
72.0500 21.3072
72.1000 27.2590
72.1500 18.8783
72.2000 17.3423
72.2500 10.2616
72.3000 20.3263
72.3500 21.5791
72.4000 28.7425
72.4500 27.4385
72.5000 27.7790
72.5500 20.9427
72.6000 19.2489
72.6500 17.5319
72.7000 17.3854
72.7500 24.8768
72.8000 26.6680
72.8500 25.9602
72.9000 22.8436
72.9500 22.3375
73.0000 26.3748
73.0500 19.4016
73.1000 19.3441
73.1500 23.2531
73.2000 32.0348
73.2500 17.5400
73.3000 26.9260
73.3500 19.2503
73.4000 23.3307
73.4500 26.4237
73.5000 26.2341
73.5500 20.7325
73.6000 23.8207
73.6500 28.2178
73.7000 21.1095
73.7500 19.2675
73.8000 15.3242
73.8500 16.4323
73.9000 27.1802
73.9500 27.2055
74.0000 19.3679
74.0500 21.0486
74.1000 20.3262
74.1500 16.7942
74.2000 26.5412
74.2500 21.9982
74.3000 23.5615
74.3500 19.6221
74.4000 18.7825
74.4500 25.3174
74.5000 27.0190
74.5500 15.9749
74.6000 28.9495
74.6500 17.7702
74.7000 23.6642
74.7500 27.6929
74.8000 22.7248
74.8500 22.1638
74.9000 23.0565
74.9500 26.3719
75.0000 22.6383
75.0500 24.5870
75.1000 23.1248
75.1500 19.8478
75.2000 18.9496
75.2500 24.9985
75.3000 20.6902
75.3500 31.0769
75.4000 26.8973
75.4500 16.8872
75.5000 26.3649
75.5500 23.2995
75.6000 13.4794
75.6500 21.0130
75.7000 14.7967
75.7500 23.2655
75.8000 22.5710
75.8500 25.0035
75.9000 25.9852
75.9500 23.6597
76.0000 19.6052
76.0500 34.1954
76.1000 21.2595
76.1500 22.5794
76.2000 24.3791
76.2500 29.1575
76.3000 20.4371
76.3500 19.6897
76.4000 22.0944
76.4500 20.5972
76.5000 12.4026
76.5500 19.0135
76.6000 27.0494
76.6500 26.2700
76.7000 18.4372
76.7500 16.2691
76.8000 22.3535
76.8500 21.7087
76.9000 24.2596
76.9500 24.6917
77.0000 22.2929
77.0500 27.2457
77.1000 23.4353
77.1500 23.7004
77.2000 23.0951
77.2500 26.0225
77.3000 27.9738
77.3500 12.9370
77.4000 16.7813
77.4500 23.1677
77.5000 18.0083
77.5500 30.0192
77.6000 25.5327
77.6500 20.2696
77.7000 26.6910
77.7500 17.1785
77.8000 24.6239
77.8500 16.2824
77.9000 26.3130
77.9500 17.4206
78.0000 17.0803
78.0500 29.1046
78.1000 35.5983
78.1500 22.2596
78.2000 21.8370
78.2500 22.7196
78.3000 27.2091
78.3500 21.9756
78.4000 13.2480
78.4500 22.0753
78.5000 22.6831
78.5500 20.1198
78.6000 30.2256
78.6500 19.5564
78.7000 16.8707
78.7500 26.0851
78.8000 21.5254
78.8500 17.2448
78.9000 24.6345
78.9500 26.1604
79.0000 21.8513
79.0500 26.6876
79.1000 27.2577
79.1500 27.7638
79.2000 19.7948
79.2500 20.3942
79.3000 25.5989
79.3500 19.9465
79.4000 25.2223
79.4500 28.4845
79.5000 24.9655
79.5500 29.0884
79.6000 17.8812
79.6500 24.8538
79.7000 22.7878
79.7500 23.5511
79.8000 19.2687
79.8500 35.4619
79.9000 23.7910
79.9500 24.4915
80.0000 26.7016
80.0500 29.6992
80.1000 28.9522
80.1500 26.6202
80.2000 28.1620
80.2500 25.1064
80.3000 16.6301
80.3500 26.0293
80.4000 20.8223
80.4500 22.4976
80.5000 22.5483
80.5500 20.9846
80.6000 21.6138
80.6500 31.1637
80.7000 21.1069
80.7500 18.4221
80.8000 27.2561
80.8500 26.6244
80.9000 18.5834
80.9500 22.5573
81.0000 26.7595
81.0500 20.8075
81.1000 26.9693
81.1500 23.7061
81.2000 20.3844
81.2500 30.2151
81.3000 28.0451
81.3500 34.5436
81.4000 39.8110
81.4500 38.6605
81.5000 47.6350
81.5500 43.8211
81.6000 60.4293
81.6500 69.9936
81.7000 76.7636
81.7500 87.7425
81.8000 107.4787
81.8500 106.1226
81.9000 101.8643
81.9500 115.4279
82.0000 90.0758
82.0500 80.6445
82.1000 64.5842
82.1500 64.6851
82.2000 55.1512
82.2500 42.3213
82.3000 44.3311
82.3500 41.2947
82.4000 35.3402
82.4500 26.0620
82.5000 39.2975
82.5500 24.7419
82.6000 27.9507
82.6500 26.9445
82.7000 21.9251
82.7500 21.9347
82.8000 20.0295
82.8500 26.5417
82.9000 22.5537
82.9500 17.0745
83.0000 22.6968
83.0500 23.7195
83.1000 19.4398
83.1500 20.2729
83.2000 19.0154
83.2500 18.1208
83.3000 22.0401
83.3500 22.3308
83.4000 27.1138
83.4500 14.2325
83.5000 31.6583
83.5500 10.1812
83.6000 32.9617
83.6500 19.3262
83.7000 27.6615
83.7500 19.8704
83.8000 16.1360
83.8500 22.7908
83.9000 21.6894
83.9500 23.9787
84.0000 35.7232
84.0500 18.0349
84.1000 21.8595
84.1500 16.3419
84.2000 25.2886
84.2500 23.8875
84.3000 22.2028
84.3500 17.1979
84.4000 22.0736
84.4500 18.9266
84.5000 26.8979
84.5500 21.8228
84.6000 21.1508
84.6500 23.1418
84.7000 19.0858
84.7500 20.2920
84.8000 11.0648
84.8500 22.8914
84.9000 26.1592
84.9500 18.1446
85.0000 19.9856
85.0500 16.1805
85.1000 26.8851
85.1500 19.1970
85.2000 22.2605
85.2500 20.1388
85.3000 21.0053
85.3500 8.9730
85.4000 25.1324
85.4500 23.4326
85.5000 19.1028
85.5500 31.0166
85.6000 14.4048
85.6500 13.4849
85.7000 24.0434
85.7500 26.3153
85.8000 23.5111
85.8500 26.6284
85.9000 17.6408
85.9500 23.5306
86.0000 19.5564
86.0500 32.8787
86.1000 22.7230
86.1500 21.0112
86.2000 23.5292
86.2500 18.7738
86.3000 18.6853
86.3500 19.8794
86.4000 23.3129
86.4500 25.3107
86.5000 23.5291
86.5500 18.8620
86.6000 24.2824
86.6500 26.4811
86.7000 21.0538
86.7500 15.0027
86.8000 30.9718
86.8500 17.8299
86.9000 22.3924
86.9500 22.5581
87.0000 15.2289
87.0500 18.0996
87.1000 25.8005
87.1500 16.3204
87.2000 22.1029
87.2500 21.2375
87.3000 20.1296
87.3500 17.2822
87.4000 33.4571
87.4500 27.0973
87.5000 22.7909
87.5500 31.5464
87.6000 30.4892
87.6500 18.8623
87.7000 25.2548
87.7500 23.8797
87.8000 19.0651
87.8500 24.4096
87.9000 24.3133
87.9500 19.5184
88.0000 24.8924
88.0500 21.5386
88.1000 33.9731
88.1500 29.9269
88.2000 17.9872
88.2500 18.6939
88.3000 20.7492
88.3500 14.4396
88.4000 26.4663
88.4500 28.0555
88.5000 19.8836
88.5500 22.2422
88.6000 28.6791
88.6500 25.1166
88.7000 28.3422
88.7500 19.3592
88.8000 23.2071
88.8500 16.9768
88.9000 21.0794
88.9500 20.0291
89.0000 27.9831
89.0500 31.2518
89.1000 21.6231
89.1500 16.2661
89.2000 13.4887
89.2500 30.2016
89.3000 26.9359
89.3500 17.3719
89.4000 32.4873
89.4500 25.9076
89.5000 16.8661
89.5500 29.8324
89.6000 21.2032
89.6500 20.1049
89.7000 19.7390
89.7500 18.4235
89.8000 20.5860
89.8500 22.2204
89.9000 17.3436
89.9500 20.3860
90.0000 20.7678
90.0500 24.3128
90.1000 14.3380
90.1500 17.6469
90.2000 22.0014
90.2500 24.5110
90.3000 13.7466
90.3500 14.8113
90.4000 29.6549
90.4500 29.7917
90.5000 27.8045
90.5500 21.3803
90.6000 30.1049
90.6500 17.4288
90.7000 20.0501
90.7500 23.3662
90.8000 20.4432
90.8500 19.0824
90.9000 22.1602
90.9500 23.9754
91.0000 34.7556
91.0500 22.6846
91.1000 11.2745
91.1500 23.4093
91.2000 23.9500
91.2500 22.5809
91.3000 17.8900
91.3500 23.8367
91.4000 15.3321
91.4500 22.0002
91.5000 18.5816
91.5500 22.2853
91.6000 20.8391
91.6500 30.7702
91.7000 18.4643
91.7500 19.2423
91.8000 17.2786
91.8500 13.9644
91.9000 15.3075
91.9500 32.9047
92.0000 21.3464
92.0500 25.6450
92.1000 26.8305
92.1500 28.0120
92.2000 26.6245
92.2500 24.2302
92.3000 25.1172
92.3500 30.5849
92.4000 22.9027
92.4500 23.5134
92.5000 17.5278
92.5500 27.8106
92.6000 27.5469
92.6500 21.3432
92.7000 21.0262
92.7500 19.0258
92.8000 26.1423
92.8500 22.4940
92.9000 17.2883
92.9500 20.7771
93.0000 16.7188
93.0500 20.1657
93.1000 28.5267
93.1500 22.7285
93.2000 19.8279
93.2500 19.2718
93.3000 21.5865
93.3500 26.0715
93.4000 19.1953
93.4500 20.3820
93.5000 17.2501
93.5500 25.2961
93.6000 18.8824
93.6500 30.9612
93.7000 18.8868
93.7500 19.4864
93.8000 25.7044
93.8500 19.3809
93.9000 27.0370
93.9500 17.5172
94.0000 22.3686
94.0500 19.0385
94.1000 18.8140
94.1500 26.5051
94.2000 28.4166
94.2500 22.4323
94.3000 23.3714
94.3500 18.3586
94.4000 23.3869
94.4500 20.0004
94.5000 31.3277
94.5500 18.0430
94.6000 22.8339
94.6500 17.6821
94.7000 14.7863
94.7500 20.5824
94.8000 26.3959
94.8500 22.2598
94.9000 25.9787
94.9500 24.2261
95.0000 16.5509
95.0500 11.8104
95.1000 24.3702
95.1500 26.3286
95.2000 22.5436
95.2500 15.1771
95.3000 29.8311
95.3500 28.0436
95.4000 17.4498
95.4500 28.6093
95.5000 19.0208
95.5500 22.0569
95.6000 12.8372
95.6500 30.1246
95.7000 25.5272
95.7500 23.7981
95.8000 13.0702
95.8500 29.3096
95.9000 24.5910
95.9500 19.4232
96.0000 20.8756
96.0500 14.7083
96.1000 18.4485
96.1500 18.8725
96.2000 15.0868
96.2500 36.0188
96.3000 26.4659
96.3500 21.9129
96.4000 27.7717
96.4500 31.0418
96.5000 32.8197
96.5500 18.2534
96.6000 20.2126
96.6500 22.1567
96.7000 27.0125
96.7500 22.0428
96.8000 16.4829
96.8500 18.0339
96.9000 24.9834
96.9500 23.6585
97.0000 24.3053
97.0500 24.8816
97.1000 21.5893
97.1500 25.2743
97.2000 12.6295
97.2500 29.5096
97.3000 23.2534
97.3500 20.6391
97.4000 28.4620
97.4500 13.2338
97.5000 27.3436
97.5500 18.6278
97.6000 30.9373
97.6500 29.4111
97.7000 25.7989
97.7500 25.2038
97.8000 17.1950
97.8500 34.7467
97.9000 30.9784
97.9500 22.4858
98.0000 31.7592
98.0500 46.6433
98.1000 36.1444
98.1500 51.2931
98.2000 59.7555
98.2500 51.1531
98.3000 58.3201
98.3500 54.4808
98.4000 72.9139
98.4500 61.0505
