#Collected Data-64
#Intensity_unit=counts
#Attenuator_coefficient=1.000000
40.0000 37.7376
40.0500 32.8109
40.1000 35.5877
40.1500 29.9465
40.2000 38.4941
40.2500 35.9873
40.3000 36.8878
40.3500 34.8807
40.4000 31.6898
40.4500 35.5314
40.5000 27.9957
40.5500 37.2041
40.6000 37.9290
40.6500 41.7227
40.7000 43.4007
40.7500 35.0683
40.8000 30.4813
40.8500 31.3025
40.9000 33.0748
40.9500 33.1474
41.0000 44.2541
41.0500 27.4895
41.1000 31.4599
41.1500 37.6539
41.2000 45.3231
41.2500 42.1368
41.3000 35.8502
41.3500 41.1699
41.4000 32.5669
41.4500 37.8588
41.5000 45.4811
41.5500 43.6928
41.6000 47.4073
41.6500 42.6426
41.7000 28.5613
41.7500 34.6055
41.8000 43.2384
41.8500 40.2252
41.9000 34.6421
41.9500 36.5026
42.0000 34.1863
42.0500 41.4847
42.1000 40.4098
42.1500 34.8477
42.2000 36.5292
42.2500 50.1853
42.3000 25.2395
42.3500 32.9072
42.4000 44.3850
42.4500 45.1130
42.5000 40.3258
42.5500 39.1332
42.6000 39.3882
42.6500 42.2193
42.7000 46.4961
42.7500 40.9596
42.8000 26.8247
42.8500 42.5890
42.9000 28.0782
42.9500 34.1091
43.0000 39.5615
43.0500 44.0683
43.1000 39.0578
43.1500 36.9177
43.2000 36.4638
43.2500 33.6822
43.3000 37.4220
43.3500 45.4698
43.4000 55.6737
43.4500 35.4328
43.5000 36.0097
43.5500 36.9111
43.6000 35.0404
43.6500 35.3699
43.7000 39.0572
43.7500 31.6294
43.8000 34.5958
43.8500 37.9030
43.9000 29.7097
43.9500 35.2241
44.0000 40.4618
44.0500 32.1102
44.1000 49.8994
44.1500 39.0702
44.2000 56.2997
44.2500 56.6419
44.3000 77.8788
44.3500 85.3703
44.4000 139.0708
44.4500 363.9657
44.5000 1207.0532
44.5500 1802.4318
44.6000 1844.6155
44.6500 1022.6456
44.7000 251.6035
44.7500 88.8740
44.8000 70.0504
44.8500 57.6528
44.9000 44.2237
44.9500 50.8111
45.0000 32.7903
45.0500 38.9166
45.1000 45.0589
45.1500 51.2416
45.2000 35.0201
45.2500 28.2630
45.3000 27.0194
45.3500 32.2172
45.4000 32.1268
45.4500 32.4014
45.5000 37.9811
45.5500 33.8329
45.6000 30.8753
45.6500 36.1251
45.7000 35.3690
45.7500 26.4417
45.8000 25.2048
45.8500 39.2651
45.9000 39.9357
45.9500 37.7356
46.0000 35.9118
46.0500 40.8132
46.1000 38.4230
46.1500 34.8510
46.2000 31.2257
46.2500 25.6830
46.3000 19.7874
46.3500 44.8191
46.4000 34.6250
46.4500 50.4642
46.5000 24.5853
46.5500 32.3108
46.6000 30.2986
46.6500 42.3736
46.7000 32.8152
46.7500 40.5812
46.8000 44.0965
46.8500 33.7078
46.9000 49.2605
46.9500 27.4622
47.0000 39.4329
47.0500 32.8084
47.1000 31.3788
47.1500 31.0158
47.2000 36.8521
47.2500 35.4231
47.3000 41.2930
47.3500 27.6444
47.4000 27.6751
47.4500 30.5445
47.5000 38.0393
47.5500 33.8807
47.6000 21.6314
47.6500 35.0161
47.7000 29.8380
47.7500 38.1761
47.8000 32.3377
47.8500 44.7662
47.9000 20.4439
47.9500 24.0516
48.0000 41.5349
48.0500 34.6060
48.1000 42.5298
48.1500 44.2990
48.2000 33.1329
48.2500 35.8055
48.3000 37.3676
48.3500 35.0923
48.4000 46.3954
48.4500 34.1682
48.5000 37.6426
48.5500 22.5027
48.6000 35.7727
48.6500 36.7579
48.7000 40.5003
48.7500 30.0663
48.8000 26.9404
48.8500 32.1592
48.9000 34.0920
48.9500 23.9242
49.0000 37.7292
49.0500 27.6150
49.1000 35.2827
49.1500 35.6353
49.2000 25.4112
49.2500 31.4784
49.3000 36.5529
49.3500 31.1698
49.4000 37.5310
49.4500 29.3331
49.5000 33.4600
49.5500 32.4249
49.6000 33.9736
49.6500 28.5264
49.7000 37.1278
49.7500 29.7649
49.8000 32.4365
49.8500 31.9243
49.9000 23.5287
49.9500 37.6173
50.0000 35.3171
50.0500 36.0773
50.1000 26.7853
50.1500 35.9585
50.2000 25.3886
50.2500 36.0658
50.3000 25.6119
50.3500 32.4784
50.4000 30.4100
50.4500 23.9724
50.5000 36.9127
50.5500 31.0935
50.6000 32.8801
50.6500 32.5259
50.7000 27.2770
50.7500 36.5218
50.8000 31.2371
50.8500 40.7306
50.9000 23.1427
50.9500 26.7945
51.0000 41.2221
51.0500 27.6125
51.1000 35.0118
51.1500 27.1553
51.2000 25.6464
51.2500 41.7218
51.3000 26.5883
51.3500 33.1464
51.4000 40.8406
51.4500 42.1806
51.5000 21.7511
51.5500 25.2994
51.6000 37.2137
51.6500 35.8849
51.7000 32.3595
51.7500 33.5686
51.8000 29.1260
51.8500 43.0031
51.9000 24.6882
51.9500 36.5921
52.0000 42.7987
52.0500 36.6625
52.1000 22.8346
52.1500 37.7661
52.2000 30.7516
52.2500 28.7780
52.3000 31.7260
52.3500 20.6266
52.4000 25.7990
52.4500 43.6777
52.5000 43.4859
52.5500 34.1817
52.6000 37.5789
52.6500 35.0811
52.7000 38.4695
52.7500 20.2841
52.8000 35.0666
52.8500 24.8053
52.9000 31.8759
52.9500 25.6670
53.0000 34.5043
53.0500 34.9032
53.1000 37.3951
53.1500 35.1639
53.2000 31.9651
53.2500 31.2972
53.3000 33.0420
53.3500 34.7414
53.4000 24.6301
53.4500 27.0601
53.5000 30.7586
53.5500 37.3433
53.6000 28.0284
53.6500 33.1463
53.7000 29.2069
53.7500 23.7404
53.8000 34.0201
53.8500 33.3771
53.9000 36.1714
53.9500 32.0224
54.0000 18.4755
54.0500 24.4200
54.1000 37.3169
54.1500 25.0694
54.2000 35.2842
54.2500 30.2782
54.3000 38.6532
54.3500 25.1066
54.4000 34.3209
54.4500 27.7838
54.5000 26.1409
54.5500 22.7002
54.6000 22.7080
54.6500 33.7670
54.7000 26.2835
54.7500 31.5617
54.8000 25.2919
54.8500 23.4850
54.9000 23.3323
54.9500 36.9836
55.0000 25.9369
55.0500 29.9921
55.1000 26.7610
55.1500 30.3403
55.2000 26.7542
55.2500 33.2425
55.3000 34.5835
55.3500 28.4697
55.4000 34.6721
55.4500 30.2887
55.5000 22.8930
55.5500 38.4619
55.6000 40.8176
55.6500 43.3616
55.7000 26.9164
55.7500 35.8687
55.8000 32.2162
55.8500 31.1503
55.9000 31.4584
55.9500 42.7973
56.0000 37.4963
56.0500 21.6725
56.1000 24.5465
56.1500 25.1287
56.2000 28.7921
56.2500 29.3410
56.3000 24.4514
56.3500 27.4585
56.4000 23.1837
56.4500 30.5186
56.5000 25.8238
56.5500 33.5211
56.6000 29.8126
56.6500 31.7204
56.7000 34.2582
56.7500 27.7858
56.8000 30.8379
56.8500 24.8712
56.9000 33.8550
56.9500 38.7087
57.0000 29.5111
57.0500 27.8097
57.1000 25.5150
57.1500 22.0998
57.2000 25.2400
57.2500 22.3822
57.3000 36.5325
57.3500 25.3825
57.4000 26.6448
57.4500 35.8143
57.5000 30.4792
57.5500 29.9270
57.6000 27.3088
57.6500 28.0774
57.7000 34.0673
57.7500 29.8284
57.8000 32.2951
57.8500 34.2697
57.9000 35.3855
57.9500 33.7489
58.0000 21.6954
58.0500 23.3122
58.1000 27.9577
58.1500 35.1412
58.2000 22.1787
58.2500 35.9756
58.3000 32.3860
58.3500 31.4666
58.4000 23.3722
58.4500 34.1707
58.5000 39.9750
58.5500 23.6656
58.6000 28.7687
58.6500 33.4637
58.7000 41.9336
58.7500 36.2552
58.8000 31.1296
58.8500 31.9199
58.9000 22.1924
58.9500 37.5065
59.0000 29.0850
59.0500 25.7273
59.1000 27.5760
59.1500 33.2922
59.2000 31.8707
59.2500 33.3717
59.3000 32.7354
59.3500 24.7674
59.4000 36.5382
59.4500 34.1382
59.5000 21.3268
59.5500 29.2399
59.6000 34.7249
59.6500 32.9071
59.7000 44.8452
59.7500 24.0033
59.8000 30.1147
59.8500 35.8813
59.9000 39.5274
59.9500 27.2971
60.0000 36.7018
60.0500 31.1471
60.1000 35.1135
60.1500 37.4367
60.2000 37.4205
60.2500 23.0375
60.3000 31.5996
60.3500 27.4216
60.4000 32.4049
60.4500 29.7262
60.5000 35.6716
60.5500 24.1489
60.6000 28.9037
60.6500 40.4236
60.7000 29.6895
60.7500 30.2529
60.8000 32.2320
60.8500 27.1597
60.9000 38.3939
60.9500 33.0472
61.0000 23.7667
61.0500 28.8676
61.1000 27.7430
61.1500 35.4575
61.2000 26.3765
61.2500 35.4053
61.3000 36.0536
61.3500 29.9339
61.4000 31.0116
61.4500 39.1812
61.5000 30.4928
61.5500 36.4590
61.6000 33.3714
61.6500 42.5978
61.7000 31.0029
61.7500 26.0805
61.8000 24.9060
61.8500 25.7472
61.9000 37.0463
61.9500 30.5263
62.0000 24.8251
62.0500 30.4435
62.1000 26.0845
62.1500 28.7283
62.2000 27.6729
62.2500 22.0894
62.3000 32.7696
62.3500 32.4049
62.4000 33.5987
62.4500 22.1656
62.5000 38.1069
62.5500 38.4849
62.6000 37.8599
62.6500 33.3187
62.7000 23.0955
62.7500 24.6775
62.8000 21.8114
62.8500 20.3481
62.9000 26.0246
62.9500 28.6771
63.0000 22.6443
63.0500 29.0287
63.1000 24.2552
63.1500 31.5427
63.2000 30.6828
63.2500 28.7101
63.3000 19.5858
63.3500 32.4102
63.4000 26.6385
63.4500 25.8704
63.5000 34.5038
63.5500 35.8603
63.6000 28.6724
63.6500 38.8254
63.7000 36.7034
63.7500 28.6733
63.8000 23.3070
63.8500 34.7415
63.9000 27.8415
63.9500 40.0153
64.0000 27.1203
64.0500 26.5404
64.1000 39.3394
64.1500 25.3823
64.2000 35.2172
64.2500 47.7414
64.3000 20.3104
64.3500 40.9753
64.4000 28.6528
64.4500 36.0457
64.5000 35.9015
64.5500 30.5959
64.6000 44.4175
64.6500 48.5983
64.7000 62.2925
64.7500 99.1583
64.8000 139.7960
64.8500 178.8026
64.9000 152.6839
64.9500 98.3337
65.0000 60.4175
65.0500 35.5056
65.1000 28.8374
65.1500 32.1666
65.2000 31.7057
65.2500 28.0828
65.3000 27.7130
65.3500 20.0106
65.4000 32.1795
65.4500 26.8987
65.5000 43.2740
65.5500 34.8862
65.6000 33.4176
65.6500 22.2665
65.7000 35.4572
65.7500 22.4754
65.8000 23.4047
65.8500 25.6879
65.9000 39.4394
65.9500 35.1183
66.0000 33.3038
66.0500 30.2555
66.1000 36.2756
66.1500 29.3837
66.2000 35.2970
66.2500 35.5857
66.3000 19.2970
66.3500 30.6236
66.4000 36.6183
66.4500 24.5560
66.5000 32.6001
66.5500 28.7196
66.6000 25.2223
66.6500 30.7403
66.7000 44.3816
66.7500 30.3827
66.8000 31.8877
66.8500 18.5228
66.9000 29.3574
66.9500 41.0351
67.0000 39.0134
67.0500 26.5733
67.1000 26.9688
67.1500 29.9263
67.2000 41.8321
67.2500 25.0724
67.3000 33.2888
67.3500 43.2919
67.4000 33.0451
67.4500 36.8354
67.5000 35.1003
67.5500 34.6134
67.6000 34.1279
67.6500 34.4796
67.7000 28.9904
67.7500 36.7379
67.8000 24.6282
67.8500 21.7961
67.9000 27.3482
67.9500 28.5900
68.0000 26.2645
68.0500 34.2796
68.1000 27.0176
68.1500 25.6028
68.2000 34.7750
68.2500 31.0468
68.3000 28.7079
68.3500 30.4767
68.4000 20.0254
68.4500 27.7831
68.5000 21.4094
68.5500 38.9829
68.6000 36.2588
68.6500 25.6091
68.7000 31.6978
68.7500 30.0157
68.8000 23.9150
68.8500 24.2740
68.9000 36.0392
68.9500 38.8078
69.0000 30.5248
69.0500 27.4346
69.1000 27.9387
69.1500 27.9965
69.2000 33.6584
69.2500 37.0995
69.3000 29.8467
69.3500 28.0304
69.4000 25.7722
69.4500 28.7029
69.5000 22.2671
69.5500 33.3033
69.6000 33.0230
69.6500 34.5919
69.7000 34.6437
69.7500 25.9851
69.8000 19.4337
69.8500 33.7779
69.9000 21.6524
69.9500 25.1543
70.0000 28.2704
70.0500 33.3930
70.1000 34.5659
70.1500 32.7657
70.2000 24.2446
70.2500 29.8224
70.3000 31.2279
70.3500 47.1028
70.4000 30.2251
70.4500 23.9536
70.5000 27.0437
70.5500 25.1122
70.6000 21.8618
70.6500 29.6092
70.7000 20.9991
70.7500 27.6371
70.8000 25.5704
70.8500 22.3590
70.9000 24.1417
70.9500 26.7585
71.0000 26.8970
71.0500 23.2804
71.1000 30.1477
71.1500 27.2262
71.2000 30.5970
71.2500 26.1281
71.3000 30.4555
71.3500 28.9658
71.4000 16.7390
71.4500 27.1836
71.5000 26.1806
71.5500 26.7449
71.6000 24.8858
71.6500 30.1941
71.7000 28.9919
71.7500 29.0444
71.8000 29.6369
71.8500 32.3099
71.9000 27.7469
71.9500 28.2978
72.0000 32.1336
72.0500 36.3940
72.1000 37.9104
72.1500 30.2790
72.2000 27.8140
72.2500 28.1876
72.3000 30.8002
72.3500 19.9729
72.4000 24.4732
72.4500 34.9540
72.5000 29.1536
72.5500 41.6115
72.6000 28.5298
72.6500 35.0347
72.7000 32.5020
72.7500 23.4180
72.8000 30.5546
72.8500 23.6432
72.9000 35.8646
72.9500 29.1780
73.0000 22.5019
73.0500 36.7798
73.1000 27.9084
73.1500 38.3437
73.2000 35.9669
73.2500 25.0144
73.3000 23.5029
73.3500 26.8407
73.4000 35.3133
73.4500 34.2184
73.5000 32.0240
73.5500 23.0846
73.6000 27.2353
73.6500 36.7775
73.7000 35.2821
73.7500 31.9912
73.8000 19.9048
73.8500 32.8562
73.9000 28.1430
73.9500 24.7635
74.0000 21.8935
74.0500 33.3007
74.1000 26.5886
74.1500 25.2361
74.2000 27.2156
74.2500 33.6623
74.3000 26.0144
74.3500 22.9719
74.4000 20.0404
74.4500 30.4112
74.5000 40.1764
74.5500 31.8080
74.6000 31.5555
74.6500 28.2875
74.7000 34.6524
74.7500 39.9004
74.8000 30.5354
74.8500 16.7260
74.9000 33.6182
74.9500 33.1505
75.0000 24.8758
75.0500 19.1531
75.1000 21.9666
75.1500 30.0999
75.2000 32.4756
75.2500 37.6797
75.3000 35.3967
75.3500 18.5502
75.4000 34.4307
75.4500 17.0197
75.5000 27.6651
75.5500 41.9044
75.6000 26.6126
75.6500 28.7621
75.7000 31.2338
75.7500 31.7793
75.8000 36.4700
75.8500 37.1754
75.9000 29.2334
75.9500 32.2885
76.0000 25.5939
76.0500 28.1639
76.1000 30.9453
76.1500 29.7972
76.2000 35.1904
76.2500 25.4269
76.3000 34.0464
76.3500 25.1737
76.4000 30.6570
76.4500 31.0504
76.5000 26.4296
76.5500 31.1942
76.6000 28.3525
76.6500 30.5583
76.7000 34.2794
76.7500 34.0708
76.8000 35.4531
76.8500 24.0592
76.9000 18.6781
76.9500 30.8441
77.0000 29.0393
77.0500 26.2238
77.1000 29.0038
77.1500 31.4355
77.2000 28.9966
77.2500 30.9643
77.3000 31.3986
77.3500 35.1480
77.4000 33.2193
77.4500 26.3137
77.5000 27.7568
77.5500 27.1191
77.6000 35.5902
77.6500 23.6808
77.7000 25.2737
77.7500 22.3190
77.8000 24.4156
77.8500 31.2513
77.9000 25.8385
77.9500 26.4440
78.0000 25.3876
78.0500 30.1499
78.1000 26.8098
78.1500 26.5513
78.2000 23.2634
78.2500 30.1066
78.3000 33.9448
78.3500 37.9343
78.4000 31.0733
78.4500 26.1433
78.5000 29.5464
78.5500 33.9343
78.6000 30.7746
78.6500 28.4417
78.7000 29.3213
78.7500 25.2871
78.8000 22.7669
78.8500 29.1394
78.9000 24.1758
78.9500 22.4271
79.0000 37.6890
79.0500 32.2242
79.1000 29.8829
79.1500 26.0062
79.2000 25.7886
79.2500 27.4478
79.3000 22.8436
79.3500 28.4901
79.4000 31.6721
79.4500 30.8592
79.5000 27.8850
79.5500 24.4419
79.6000 29.6942
79.6500 32.9604
79.7000 27.7984
79.7500 29.6453
79.8000 29.2785
79.8500 24.2409
79.9000 24.4150
79.9500 31.6139
80.0000 35.1469
80.0500 22.0593
80.1000 17.9208
80.1500 24.9229
80.2000 30.5035
80.2500 36.2585
80.3000 36.4844
80.3500 31.3539
80.4000 27.7252
80.4500 28.0569
80.5000 36.3997
80.5500 37.7006
80.6000 30.6094
80.6500 27.1310
80.7000 34.9642
80.7500 26.1676
80.8000 31.7509
80.8500 37.0240
80.9000 28.8018
80.9500 35.8614
81.0000 32.0514
81.0500 25.5614
81.1000 29.3376
81.1500 35.2838
81.2000 44.8283
81.2500 18.7945
81.3000 26.6516
81.3500 31.0767
81.4000 23.9956
81.4500 28.0002
81.5000 34.0523
81.5500 30.4490
81.6000 26.3890
81.6500 35.4042
81.7000 45.2279
81.7500 27.7674
81.8000 35.9837
81.8500 36.5271
81.9000 50.9373
81.9500 63.1771
82.0000 131.9472
82.0500 187.0092
82.1000 321.8337
82.1500 327.0312
82.2000 215.7380
82.2500 121.0694
82.3000 62.1586
82.3500 41.2631
82.4000 39.1297
82.4500 43.4200
82.5000 51.1230
82.5500 35.1307
82.6000 32.0096
82.6500 31.9104
82.7000 41.8185
82.7500 33.3131
82.8000 29.4711
82.8500 39.9086
82.9000 32.4204
82.9500 21.6246
83.0000 24.7907
83.0500 27.9458
83.1000 34.2420
83.1500 22.7710
83.2000 27.7898
83.2500 26.5384
83.3000 27.0614
83.3500 33.7155
83.4000 29.3849
83.4500 28.7194
83.5000 24.7508
83.5500 29.6907
83.6000 32.0864
83.6500 29.6402
83.7000 26.8821
83.7500 26.2376
83.8000 26.2971
83.8500 33.0337
83.9000 34.1938
83.9500 33.6791
84.0000 31.4829
84.0500 31.2440
84.1000 32.0128
84.1500 39.2240
84.2000 33.5611
84.2500 25.4105
84.3000 24.7032
84.3500 22.6371
84.4000 18.0901
84.4500 19.3703
84.5000 30.3613
84.5500 28.7753
84.6000 32.6681
84.6500 41.3601
84.7000 28.7806
84.7500 30.8705
84.8000 37.8951
84.8500 26.0487
84.9000 39.2860
84.9500 27.3358
85.0000 28.5395
85.0500 27.6767
85.1000 28.0358
85.1500 29.4140
85.2000 24.4936
85.2500 24.2110
85.3000 29.8423
85.3500 30.6829
85.4000 25.0123
85.4500 27.8798
85.5000 28.0352
85.5500 37.5911
85.6000 26.3702
85.6500 31.9803
85.7000 30.3483
85.7500 26.6331
85.8000 23.8460
85.8500 32.6157
85.9000 28.5491
85.9500 22.7839
86.0000 29.1007
86.0500 31.5723
86.1000 34.1119
86.1500 21.2130
86.2000 40.1076
86.2500 26.2214
86.3000 27.3927
86.3500 34.0584
86.4000 29.9777
86.4500 24.9745
86.5000 21.7882
86.5500 23.4070
86.6000 31.3557
86.6500 25.3915
86.7000 22.3505
86.7500 33.9235
86.8000 34.9803
86.8500 30.6789
86.9000 29.9799
86.9500 24.5132
87.0000 34.8802
87.0500 30.5989
87.1000 22.4605
87.1500 22.6691
87.2000 19.4593
87.2500 23.7780
87.3000 49.5410
87.3500 19.5671
87.4000 36.2286
87.4500 32.2411
87.5000 21.1344
87.5500 27.7717
87.6000 38.9235
87.6500 34.5467
87.7000 24.4204
87.7500 28.7350
87.8000 42.7309
87.8500 32.6047
87.9000 25.4391
87.9500 25.0247
88.0000 28.9303
88.0500 25.4222
88.1000 22.6076
88.1500 27.4964
88.2000 19.2328
88.2500 27.8255
88.3000 39.1310
88.3500 30.9421
88.4000 23.2413
88.4500 28.3917
88.5000 28.2342
88.5500 26.8647
88.6000 28.4936
88.6500 24.4889
88.7000 34.3753
88.7500 29.5769
88.8000 28.4172
88.8500 26.3466
88.9000 25.3073
88.9500 27.4965
89.0000 41.5162
89.0500 33.0265
89.1000 29.5572
89.1500 28.7183
89.2000 26.2359
89.2500 33.9159
89.3000 36.8975
89.3500 25.8946
89.4000 14.0270
89.4500 28.4077
89.5000 29.2799
89.5500 31.3816
89.6000 33.4733
89.6500 24.0369
89.7000 26.7872
89.7500 27.4091
89.8000 32.1378
89.8500 28.5099
89.9000 25.4387
89.9500 31.0750
90.0000 24.9685
90.0500 24.4730
90.1000 27.4742
90.1500 25.2741
90.2000 24.7715
90.2500 28.0145
90.3000 32.6709
90.3500 35.0353
90.4000 18.9217
90.4500 27.0552
90.5000 29.1496
90.5500 37.9074
90.6000 30.3397
90.6500 28.0958
90.7000 27.1448
90.7500 34.8198
90.8000 30.4384
90.8500 39.4472
90.9000 28.6121
90.9500 28.1046
91.0000 29.1162
91.0500 30.9675
91.1000 32.9239
91.1500 31.2827
91.2000 35.3804
91.2500 30.2316
91.3000 36.7595
91.3500 18.3368
91.4000 25.2358
91.4500 36.8061
91.5000 35.7498
91.5500 26.3590
91.6000 25.2117
91.6500 34.4666
91.7000 37.7172
91.7500 21.3617
91.8000 36.6418
91.8500 25.8955
91.9000 37.4415
91.9500 19.6014
92.0000 23.5583
92.0500 18.2472
92.1000 39.4073
92.1500 19.0753
92.2000 19.6377
92.2500 32.1122
92.3000 26.8295
92.3500 33.0111
92.4000 28.1668
92.4500 22.4341
92.5000 33.7026
92.5500 24.1355
92.6000 33.0389
92.6500 24.1667
92.7000 24.3385
92.7500 30.8350
92.8000 25.2868
92.8500 29.1244
92.9000 31.2018
92.9500 22.6405
93.0000 36.4589
93.0500 34.2499
93.1000 29.1906
93.1500 35.6837
93.2000 26.6075
93.2500 26.1509
93.3000 24.1886
93.3500 32.7878
93.4000 39.7836
93.4500 29.3814
93.5000 24.6123
93.5500 33.8032
93.6000 23.0171
93.6500 21.2983
93.7000 28.9659
93.7500 28.3609
93.8000 32.8217
93.8500 31.2419
93.9000 21.4341
93.9500 25.5093
94.0000 27.2661
94.0500 25.6440
94.1000 24.5227
94.1500 24.2064
94.2000 25.5066
94.2500 27.6968
94.3000 28.1609
94.3500 25.5128
94.4000 35.6700
94.4500 36.0063
94.5000 35.3023
94.5500 27.0782
94.6000 30.9756
94.6500 31.7010
94.7000 27.7685
94.7500 32.2516
94.8000 35.6639
94.8500 23.0737
94.9000 18.0808
94.9500 27.7790
95.0000 21.0026
95.0500 31.9888
95.1000 27.6618
95.1500 26.8530
95.2000 24.8979
95.2500 16.1610
95.3000 33.9919
95.3500 36.8922
95.4000 31.4088
95.4500 28.5101
95.5000 32.7952
95.5500 18.5245
95.6000 35.6347
95.6500 27.9967
95.7000 19.9529
95.7500 27.8100
95.8000 24.2827
95.8500 29.1773
95.9000 32.1551
95.9500 24.9118
96.0000 32.0877
96.0500 26.0306
96.1000 29.6347
96.1500 23.3109
96.2000 28.5542
96.2500 28.7983
96.3000 33.5235
96.3500 30.1749
96.4000 28.2248
96.4500 28.2862
96.5000 29.6609
96.5500 30.3268
96.6000 23.2457
96.6500 30.7119
96.7000 40.6046
96.7500 32.7472
96.8000 30.7846
96.8500 30.5502
96.9000 33.5162
96.9500 20.4403
97.0000 30.1361
97.0500 22.7908
97.1000 26.8458
97.1500 32.2927
97.2000 37.1324
97.2500 30.2514
97.3000 27.2833
97.3500 33.3351
97.4000 31.1633
97.4500 30.5316
97.5000 19.8738
97.5500 34.7695
97.6000 21.5433
97.6500 27.5536
97.7000 25.4991
97.7500 31.0097
97.8000 21.6613
97.8500 24.6617
97.9000 33.8368
97.9500 29.5135
98.0000 28.9524
98.0500 19.7663
98.1000 29.2118
98.1500 31.4923
98.2000 23.7192
98.2500 27.7167
98.3000 31.8270
98.3500 41.5629
98.4000 31.4551
98.4500 38.9470
