#Collected Data-111
#Intensity_unit=counts
#Attenuator_coefficient=1.000000
40.0000 41.9691
40.0100 46.3703
40.0200 43.1942
40.0300 39.5971
40.0400 52.2238
40.0500 55.5697
40.0600 53.6819
40.0700 60.5826
40.0800 54.4235
40.0900 46.1136
40.1000 41.2157
40.1100 48.4988
40.1200 49.1270
40.1300 53.7604
40.1400 50.6454
40.1500 47.0549
40.1600 46.4229
40.1700 63.0732
40.1800 41.1392
40.1900 59.5590
40.2000 54.1959
40.2100 45.5858
40.2200 54.0391
40.2300 54.5022
40.2400 55.0553
40.2500 55.5212
40.2600 51.7538
40.2700 56.4572
40.2800 51.5303
40.2900 36.1554
40.3000 44.4964
40.3100 46.5047
40.3200 54.8859
40.3300 49.0374
40.3400 45.4532
40.3500 49.7321
40.3600 45.9005
40.3700 48.8796
40.3800 41.3920
40.3900 43.1193
40.4000 35.2484
40.4100 43.9798
40.4200 46.5027
40.4300 55.9243
40.4400 50.7809
40.4500 47.2419
40.4600 42.5139
40.4700 53.9874
40.4800 48.7185
40.4900 53.3456
40.5000 51.0788
40.5100 45.3959
40.5200 54.2181
40.5300 56.3485
40.5400 48.9301
40.5500 40.2531
40.5600 43.8047
40.5700 60.4048
40.5800 43.0793
40.5900 59.3755
40.6000 52.0369
40.6100 59.3814
40.6200 47.4837
40.6300 46.6645
40.6400 52.1638
40.6500 44.0933
40.6600 52.4248
40.6700 47.9178
40.6800 49.3811
40.6900 56.0898
40.7000 53.4623
40.7100 33.1576
40.7200 41.9320
40.7300 59.1995
40.7400 55.9014
40.7500 52.2313
40.7600 58.4783
40.7700 55.8859
40.7800 47.4329
40.7900 46.9766
40.8000 57.5454
40.8100 42.9902
40.8200 46.1022
40.8300 50.7053
40.8400 49.8546
40.8500 65.3532
40.8600 54.9311
40.8700 48.9371
40.8800 46.6329
40.8900 47.0904
40.9000 58.3379
40.9100 49.4958
40.9200 48.9104
40.9300 49.1730
40.9400 50.8721
40.9500 49.5552
40.9600 54.3421
40.9700 56.6942
40.9800 44.5900
40.9900 38.6317
41.0000 52.4164
41.0100 46.4759
41.0200 43.2698
41.0300 49.2960
41.0400 40.7665
41.0500 46.9404
41.0600 52.2505
41.0700 42.7613
41.0800 58.7438
41.0900 48.4830
41.1000 51.6438
41.1100 50.5363
41.1200 46.2801
41.1300 50.3630
41.1400 41.5658
41.1500 59.2509
41.1600 52.2668
41.1700 45.0505
41.1800 52.3147
41.1900 47.5804
41.2000 49.0812
41.2100 48.2173
41.2200 55.3370
41.2300 60.6313
41.2400 62.8623
41.2500 47.3747
41.2600 53.0655
41.2700 48.8447
41.2800 55.6269
41.2900 49.2915
41.3000 51.5222
41.3100 50.0029
41.3200 53.1491
41.3300 55.6829
41.3400 46.9980
41.3500 45.7111
41.3600 40.1768
41.3700 52.4283
41.3800 47.0434
41.3900 59.4317
41.4000 47.9979
41.4100 67.3173
41.4200 35.2282
41.4300 62.5509
41.4400 58.3369
41.4500 56.5095
41.4600 62.1012
41.4700 54.6040
41.4800 40.2018
41.4900 47.9111
41.5000 53.7169
41.5100 58.5594
41.5200 54.3508
41.5300 45.6765
41.5400 44.9503
41.5500 57.2566
41.5600 61.4381
41.5700 53.8056
41.5800 47.8650
41.5900 49.6337
41.6000 43.6582
41.6100 51.3035
41.6200 52.0142
41.6300 49.9380
41.6400 55.7435
41.6500 59.2871
41.6600 56.9167
41.6700 56.2877
41.6800 46.4714
41.6900 49.3064
41.7000 57.0789
41.7100 53.7346
41.7200 38.0030
41.7300 61.8597
41.7400 37.4737
41.7500 64.7880
41.7600 64.1258
41.7700 52.6943
41.7800 48.4897
41.7900 49.9114
41.8000 56.7913
41.8100 48.2612
41.8200 57.9781
41.8300 69.3909
41.8400 70.5291
41.8500 56.4779
41.8600 65.1543
41.8700 58.9694
41.8800 51.7508
41.8900 54.8491
41.9000 58.2916
41.9100 62.5554
41.9200 53.0317
41.9300 54.9909
41.9400 52.5785
41.9500 54.2191
41.9600 55.7361
41.9700 47.2785
41.9800 58.1534
41.9900 54.7330
42.0000 59.0157
42.0100 57.2102
42.0200 61.4881
42.0300 50.6431
42.0400 53.0883
42.0500 68.3298
42.0600 62.5946
42.0700 73.7938
42.0800 66.1147
42.0900 72.4450
42.1000 63.8170
42.1100 50.2063
42.1200 57.0233
42.1300 51.8662
42.1400 57.0768
42.1500 63.4587
42.1600 50.8018
42.1700 59.1822
42.1800 59.3231
42.1900 62.9355
42.2000 54.8515
42.2100 68.8560
42.2200 69.0204
42.2300 63.6960
42.2400 72.4314
42.2500 62.7657
42.2600 58.9507
42.2700 63.8007
42.2800 65.2663
42.2900 74.7917
42.3000 59.3512
42.3100 64.1445
42.3200 60.7061
42.3300 70.4099
42.3400 66.3285
42.3500 58.3161
42.3600 57.8592
42.3700 58.1796
42.3800 51.0194
42.3900 64.0408
42.4000 59.3615
42.4100 60.6153
42.4200 65.4128
42.4300 72.4622
42.4400 56.0806
42.4500 48.9110
42.4600 66.5636
42.4700 67.7047
42.4800 68.3380
42.4900 71.8591
42.5000 66.4802
42.5100 65.3986
42.5200 65.4271
42.5300 66.0870
42.5400 72.2225
42.5500 73.1575
42.5600 58.8765
42.5700 60.0366
42.5800 62.1139
42.5900 58.7921
42.6000 70.6590
42.6100 77.4407
42.6200 71.7845
42.6300 53.5717
42.6400 61.3786
42.6500 70.1814
42.6600 65.4475
42.6700 73.4025
42.6800 77.0742
42.6900 71.9221
42.7000 54.9634
42.7100 64.6870
42.7200 70.2343
42.7300 63.1951
42.7400 56.9108
42.7500 75.1280
42.7600 67.8450
42.7700 58.7595
42.7800 68.3841
42.7900 67.0058
42.8000 69.9141
42.8100 61.6334
42.8200 62.8728
42.8300 64.1199
42.8400 63.5871
42.8500 69.2725
42.8600 72.7759
42.8700 57.8741
42.8800 54.7768
42.8900 71.1622
42.9000 62.9668
42.9100 64.0905
42.9200 61.5806
42.9300 56.6752
42.9400 75.5777
42.9500 63.1740
42.9600 71.9621
42.9700 81.4703
42.9800 75.2285
42.9900 67.0306
43.0000 65.5773
43.0100 74.6601
43.0200 71.5480
43.0300 69.9822
43.0400 67.3276
43.0500 67.6834
43.0600 71.9738
43.0700 79.1995
43.0800 68.0078
43.0900 65.3054
43.1000 67.0735
43.1100 67.1775
43.1200 73.5133
43.1300 60.4962
43.1400 58.6527
43.1500 80.0943
43.1600 81.7334
43.1700 70.1095
43.1800 64.8205
43.1900 77.9651
43.2000 63.7975
43.2100 69.5776
43.2200 75.9527
43.2300 67.5877
43.2400 68.6885
43.2500 69.2744
43.2600 62.9730
43.2700 65.0257
43.2800 64.9987
43.2900 54.0460
43.3000 59.5813
43.3100 55.5855
43.3200 68.3487
43.3300 67.8355
43.3400 64.7548
43.3500 78.9196
43.3600 70.4264
43.3700 72.8588
43.3800 71.0894
43.3900 57.0062
43.4000 75.8241
43.4100 53.7058
43.4200 80.9915
43.4300 70.8220
43.4400 71.7940
43.4500 75.8167
43.4600 80.2898
43.4700 78.3766
43.4800 67.9961
43.4900 65.8205
43.5000 72.7226
43.5100 64.1804
43.5200 85.1785
43.5300 79.4475
43.5400 76.9822
43.5500 81.4880
43.5600 69.6364
43.5700 67.6673
43.5800 84.2226
43.5900 87.9576
43.6000 68.0488
43.6100 77.6305
43.6200 54.1514
43.6300 64.4048
43.6400 68.1574
43.6500 84.5210
43.6600 80.6835
43.6700 78.1425
43.6800 80.1085
43.6900 66.7608
43.7000 69.6210
43.7100 85.4935
43.7200 57.0074
43.7300 85.0900
43.7400 79.0910
43.7500 67.2605
43.7600 90.2459
43.7700 74.9559
43.7800 71.7066
43.7900 75.3403
43.8000 73.3421
43.8100 78.5179
43.8200 66.8079
43.8300 73.7716
43.8400 71.5223
43.8500 63.9363
43.8600 70.7072
43.8700 69.6626
43.8800 73.3279
43.8900 79.8814
43.9000 51.4522
43.9100 75.2079
43.9200 75.7792
43.9300 74.0238
43.9400 83.2025
43.9500 73.9523
43.9600 78.5967
43.9700 77.8779
43.9800 78.3611
43.9900 84.9990
44.0000 74.6476
44.0100 65.4041
44.0200 73.6929
44.0300 71.8309
44.0400 69.8501
44.0500 77.7467
44.0600 84.0056
44.0700 76.8319
44.0800 70.7262
44.0900 72.9426
44.1000 80.5482
44.1100 58.6297
44.1200 65.9530
44.1300 73.6531
44.1400 71.2660
44.1500 74.9042
44.1600 78.6168
44.1700 70.5767
44.1800 71.5531
44.1900 83.5650
44.2000 71.7315
44.2100 75.7748
44.2200 87.7574
44.2300 69.3311
44.2400 76.2092
44.2500 70.8542
44.2600 71.7030
44.2700 66.8236
44.2800 80.6618
44.2900 78.0573
44.3000 65.8282
44.3100 85.6639
44.3200 59.2980
44.3300 64.2521
44.3400 63.8506
44.3500 68.0934
44.3600 72.5712
44.3700 63.1987
44.3800 73.7537
44.3900 73.0442
44.4000 57.2231
44.4100 72.1357
44.4200 86.7510
44.4300 77.1041
44.4400 63.6756
44.4500 77.8350
44.4600 68.1772
44.4700 71.3020
44.4800 71.5144
44.4900 71.2827
44.5000 65.7361
44.5100 67.5717
44.5200 82.1579
44.5300 75.1799
44.5400 65.0595
44.5500 58.3757
44.5600 71.8720
44.5700 82.1316
44.5800 71.0519
44.5900 64.0772
44.6000 70.1433
44.6100 88.2782
44.6200 76.8277
44.6300 74.1777
44.6400 72.7210
44.6500 67.6970
44.6600 76.5051
44.6700 58.9710
44.6800 78.4205
44.6900 78.0210
44.7000 60.8785
44.7100 64.1029
44.7200 79.8616
44.7300 81.2337
44.7400 88.3382
44.7500 60.9198
44.7600 61.3831
44.7700 67.8334
44.7800 76.8155
44.7900 64.8570
44.8000 66.9968
44.8100 68.9840
44.8200 69.4402
44.8300 75.5506
44.8400 64.7216
44.8500 60.4277
44.8600 80.0843
44.8700 71.7135
44.8800 69.3353
44.8900 68.2617
44.9000 77.2554
44.9100 67.8134
44.9200 73.0611
44.9300 68.8013
44.9400 57.0191
44.9500 71.2985
44.9600 75.0247
44.9700 78.7301
44.9800 75.2001
44.9900 69.2893
45.0000 86.5434
45.0100 78.8972
45.0200 65.0010
45.0300 57.0970
45.0400 70.0675
45.0500 78.1483
45.0600 67.1579
45.0700 62.1896
45.0800 68.9003
45.0900 58.4653
45.1000 68.3670
45.1100 80.6510
45.1200 79.5816
45.1300 71.5811
45.1400 74.6123
45.1500 58.9796
45.1600 66.9841
45.1700 61.9142
45.1800 86.2048
45.1900 90.0042
45.2000 76.7126
45.2100 60.1236
45.2200 80.2179
45.2300 72.7320
45.2400 76.1629
45.2500 65.4863
45.2600 79.5363
45.2700 56.6085
45.2800 79.0685
45.2900 87.0058
45.3000 74.6919
45.3100 72.9804
45.3200 74.1183
45.3300 66.0863
45.3400 85.3757
45.3500 69.5687
45.3600 61.0361
45.3700 80.6218
45.3800 75.5676
45.3900 74.7924
45.4000 77.9494
45.4100 69.0508
45.4200 72.1219
45.4300 62.4296
45.4400 64.9457
45.4500 58.5013
45.4600 59.8331
45.4700 69.0530
45.4800 68.6120
45.4900 69.4759
45.5000 75.0841
45.5100 77.1139
45.5200 69.7762
45.5300 69.5024
45.5400 74.9489
45.5500 69.4174
45.5600 76.5997
45.5700 78.4194
45.5800 64.4349
45.5900 62.8360
45.6000 60.5622
45.6100 67.2186
45.6200 60.8196
45.6300 67.6786
45.6400 57.0998
45.6500 64.5019
45.6600 84.4327
45.6700 66.1079
45.6800 69.9880
45.6900 66.5091
45.7000 71.3252
45.7100 73.4074
45.7200 72.7145
45.7300 69.7155
45.7400 62.5506
45.7500 54.6425
45.7600 56.9125
45.7700 65.0701
45.7800 57.4484
45.7900 64.5335
45.8000 57.4374
45.8100 62.5014
45.8200 82.7513
45.8300 67.2869
45.8400 60.0008
45.8500 53.4481
45.8600 63.3117
45.8700 72.7065
45.8800 52.3567
45.8900 54.7697
45.9000 59.2717
45.9100 61.3304
45.9200 59.6950
45.9300 69.9152
45.9400 60.7325
45.9500 52.5296
45.9600 59.0668
45.9700 50.5651
45.9800 56.5783
45.9900 60.6167
46.0000 66.2284
46.0100 72.5194
46.0200 55.0519
46.0300 60.2705
46.0400 53.0792
46.0500 55.2777
46.0600 50.6666
46.0700 65.4346
46.0800 75.3639
46.0900 51.2410
46.1000 67.9093
46.1100 57.5312
46.1200 64.3315
46.1300 62.0033
46.1400 59.4757
46.1500 72.0162
46.1600 63.0877
46.1700 54.2516
46.1800 58.0490
46.1900 70.1507
46.2000 57.8593
46.2100 69.9715
46.2200 59.4607
46.2300 55.2810
46.2400 65.8983
46.2500 57.6061
46.2600 57.0806
46.2700 65.0931
46.2800 73.6785
46.2900 51.3770
46.3000 62.2219
46.3100 58.9682
46.3200 64.6004
46.3300 64.6934
46.3400 46.4004
46.3500 55.9048
46.3600 58.3040
46.3700 68.5466
46.3800 55.2020
46.3900 61.0098
46.4000 66.9092
46.4100 51.0789
46.4200 59.3281
46.4300 57.0863
46.4400 53.1841
46.4500 45.3949
46.4600 65.1992
46.4700 57.9134
46.4800 50.0817
46.4900 52.5145
46.5000 55.8741
46.5100 64.6373
46.5200 54.8571
46.5300 63.1517
46.5400 61.5759
46.5500 54.9791
46.5600 59.5106
46.5700 67.6031
46.5800 54.9949
46.5900 63.2556
46.6000 56.2313
46.6100 63.9765
46.6200 60.5176
46.6300 61.1045
46.6400 57.8077
46.6500 69.7963
46.6600 73.5087
46.6700 58.1116
46.6800 48.5025
46.6900 46.0240
46.7000 62.8676
46.7100 54.7021
46.7200 70.6577
46.7300 61.7195
46.7400 56.1460
46.7500 59.0583
46.7600 50.9498
46.7700 53.5767
46.7800 59.8604
46.7900 50.5090
46.8000 58.0040
46.8100 51.9133
46.8200 52.1332
46.8300 51.5910
46.8400 44.5694
46.8500 43.7178
46.8600 57.4972
46.8700 63.1911
46.8800 58.5928
46.8900 53.5413
46.9000 62.5391
46.9100 53.5630
46.9200 62.9428
46.9300 63.0982
46.9400 68.0887
46.9500 49.8456
46.9600 62.9786
46.9700 60.9005
46.9800 62.0662
46.9900 56.1534
47.0000 53.6162
47.0100 66.7687
47.0200 55.1102
47.0300 38.0140
47.0400 61.8294
47.0500 58.5979
47.0600 60.8818
47.0700 48.0158
47.0800 51.6786
47.0900 41.6602
47.1000 50.7996
47.1100 38.5661
47.1200 47.9575
47.1300 51.5860
47.1400 42.2267
47.1500 53.7243
47.1600 55.8884
47.1700 54.8524
47.1800 53.9739
47.1900 46.3052
47.2000 43.1257
47.2100 52.0371
47.2200 56.0411
47.2300 57.1041
47.2400 63.8322
47.2500 37.1112
47.2600 45.9005
47.2700 56.7536
47.2800 52.8955
47.2900 50.1203
47.3000 59.7927
47.3100 67.5138
47.3200 50.7619
47.3300 52.7178
47.3400 54.5714
47.3500 45.4481
47.3600 65.0572
47.3700 54.7878
47.3800 52.5830
47.3900 47.0649
47.4000 45.0623
47.4100 49.6595
47.4200 45.2797
47.4300 36.2339
47.4400 49.1942
47.4500 47.5838
47.4600 42.9987
47.4700 59.2133
47.4800 56.0726
47.4900 42.9459
47.5000 52.3675
47.5100 53.8137
47.5200 45.6047
47.5300 48.8580
47.5400 47.5436
47.5500 56.7304
47.5600 48.5652
47.5700 58.7392
47.5800 46.5281
47.5900 48.1695
47.6000 42.1388
47.6100 45.5327
47.6200 45.8533
47.6300 59.5333
47.6400 61.4207
47.6500 55.0244
47.6600 57.4614
47.6700 54.2863
47.6800 54.4529
47.6900 44.9735
47.7000 56.1867
47.7100 53.1547
47.7200 50.7627
47.7300 51.9847
47.7400 40.4122
47.7500 40.5230
47.7600 44.8424
47.7700 66.4996
47.7800 51.4552
47.7900 54.9387
47.8000 61.4100
47.8100 49.6669
47.8200 42.7890
47.8300 55.6503
47.8400 53.5627
47.8500 44.9497
47.8600 49.3798
47.8700 37.1166
47.8800 49.6870
47.8900 55.6572
47.9000 39.4800
47.9100 65.4017
47.9200 57.2030
47.9300 49.9673
47.9400 43.3573
47.9500 39.6641
47.9600 47.9109
47.9700 46.7283
47.9800 48.9538
47.9900 40.4843
48.0000 50.7392
48.0100 50.6776
48.0200 37.4046
48.0300 52.0065
48.0400 65.2622
48.0500 56.7830
48.0600 46.7582
48.0700 47.7033
48.0800 59.3574
48.0900 37.9386
48.1000 50.0078
48.1100 43.2092
48.1200 49.7389
48.1300 44.1058
48.1400 38.4265
48.1500 44.6393
48.1600 53.0658
48.1700 46.7269
48.1800 43.5639
48.1900 58.4344
48.2000 54.1805
48.2100 54.1096
48.2200 51.6764
48.2300 45.5347
48.2400 54.3967
48.2500 49.2068
48.2600 54.1090
48.2700 49.2742
48.2800 43.1383
48.2900 49.5763
48.3000 52.1028
48.3100 46.3153
48.3200 57.5588
48.3300 52.4441
48.3400 46.6802
48.3500 55.3197
48.3600 55.2152
48.3700 43.4797
48.3800 40.7072
48.3900 50.4471
48.4000 45.9139
48.4100 54.7559
48.4200 41.8429
48.4300 43.0955
48.4400 53.2125
48.4500 62.6499
48.4600 48.0329
48.4700 46.4440
48.4800 47.1950
48.4900 54.1480
48.5000 52.8101
48.5100 44.4494
48.5200 47.0781
48.5300 53.4210
48.5400 52.4208
48.5500 48.7067
48.5600 40.4976
48.5700 48.3709
48.5800 44.0276
48.5900 52.4054
48.6000 55.6862
48.6100 59.0920
48.6200 46.9560
48.6300 53.3988
48.6400 43.3100
48.6500 51.8578
48.6600 41.9264
48.6700 41.3351
48.6800 43.2962
48.6900 50.9530
48.7000 46.3728
48.7100 54.0009
48.7200 46.0933
48.7300 54.9314
48.7400 48.6109
48.7500 53.6599
48.7600 52.6177
48.7700 54.2061
48.7800 52.4208
48.7900 43.4903
48.8000 33.6636
48.8100 48.2594
48.8200 54.7567
48.8300 49.3256
48.8400 55.4115
48.8500 41.8439
48.8600 46.9515
48.8700 52.9324
48.8800 46.7344
48.8900 50.3127
48.9000 64.5244
48.9100 59.4635
48.9200 54.8707
48.9300 49.8271
48.9400 49.5099
48.9500 37.2548
48.9600 46.7691
48.9700 43.9143
48.9800 42.7000
48.9900 44.9233
49.0000 48.3055
49.0100 48.4793
49.0200 38.9746
49.0300 37.1923
49.0400 49.3285
49.0500 45.7112
49.0600 49.9854
49.0700 55.7837
49.0800 48.3652
49.0900 46.0603
49.1000 42.2301
49.1100 47.2069
49.1200 38.6420
49.1300 52.6420
49.1400 55.6573
49.1500 45.3009
49.1600 44.5813
49.1700 54.4824
49.1800 38.0635
49.1900 48.8179
49.2000 46.1444
49.2100 44.4802
49.2200 55.1627
49.2300 59.7240
49.2400 52.1524
49.2500 47.7949
49.2600 43.3224
49.2700 35.8514
49.2800 57.5959
49.2900 48.0926
49.3000 51.7226
49.3100 51.8908
49.3200 41.7753
49.3300 38.4813
49.3400 52.0904
49.3500 42.6740
49.3600 38.1116
49.3700 43.8161
49.3800 50.2367
49.3900 48.7953
49.4000 45.1697
49.4100 57.2706
49.4200 47.2577
49.4300 34.9299
49.4400 50.4828
49.4500 60.3566
49.4600 34.3869
49.4700 39.2857
49.4800 40.8032
49.4900 41.2924
49.5000 43.5062
49.5100 46.2959
49.5200 55.5559
49.5300 58.4559
49.5400 41.4711
49.5500 39.3409
49.5600 48.1508
49.5700 46.4718
49.5800 59.8045
49.5900 51.1292
49.6000 52.0105
49.6100 51.0235
49.6200 45.2787
49.6300 45.5742
49.6400 67.0990
49.6500 56.3314
49.6600 48.9679
49.6700 44.8276
49.6800 59.8446
49.6900 46.9861
49.7000 49.7169
49.7100 48.1582
49.7200 50.7937
49.7300 46.9203
49.7400 49.1634
49.7500 49.1401
49.7600 49.3615
49.7700 56.3483
49.7800 41.0198
49.7900 45.3582
49.8000 42.6491
49.8100 45.6512
49.8200 68.6665
49.8300 39.7009
49.8400 46.3665
49.8500 51.9374
49.8600 54.8442
49.8700 45.3284
49.8800 45.2951
49.8900 47.1931
49.9000 71.1158
49.9100 47.3508
49.9200 46.8443
49.9300 46.4152
49.9400 53.7375
49.9500 50.9588
49.9600 53.1987
49.9700 54.0660
49.9800 51.3580
49.9900 42.8930
50.0000 52.4303
50.0100 48.0095
50.0200 43.7998
50.0300 51.2422
50.0400 51.1000
50.0500 50.0890
50.0600 47.5131
50.0700 51.4403
50.0800 54.8071
50.0900 46.7151
50.1000 51.0243
50.1100 47.8555
50.1200 53.3622
50.1300 61.6759
50.1400 63.9745
50.1500 40.4913
50.1600 49.3626
50.1700 39.5589
50.1800 53.1583
50.1900 57.4537
50.2000 48.6945
50.2100 36.4163
50.2200 38.0107
50.2300 47.7830
50.2400 45.6689
50.2500 47.0658
50.2600 47.2387
50.2700 51.2457
50.2800 51.9712
50.2900 44.3085
50.3000 47.6549
50.3100 46.9316
50.3200 40.8215
50.3300 47.4735
50.3400 49.9799
50.3500 47.0312
50.3600 44.7040
50.3700 44.9570
50.3800 54.5199
50.3900 52.9003
50.4000 49.3477
50.4100 58.7436
50.4200 52.5441
50.4300 33.9916
50.4400 46.6086
50.4500 52.5740
50.4600 43.7321
50.4700 50.6943
50.4800 54.7287
50.4900 54.2136
50.5000 61.0309
50.5100 38.7565
50.5200 37.4016
50.5300 59.7505
50.5400 44.2726
50.5500 59.6746
50.5600 44.3165
50.5700 44.7594
50.5800 51.0854
50.5900 50.5847
50.6000 35.0232
50.6100 38.9846
50.6200 47.5388
50.6300 52.4916
50.6400 50.8069
50.6500 56.7915
50.6600 46.6628
50.6700 39.6644
50.6800 55.7357
50.6900 51.4158
50.7000 44.9599
50.7100 48.6375
50.7200 48.6369
50.7300 45.1406
50.7400 61.6099
50.7500 40.8587
50.7600 48.2092
50.7700 60.1137
50.7800 52.0257
50.7900 39.1895
50.8000 49.2416
50.8100 49.8011
50.8200 52.0981
50.8300 56.6240
50.8400 53.5965
50.8500 54.0180
50.8600 40.5681
50.8700 44.4239
50.8800 40.8120
50.8900 38.5955
50.9000 37.5205
50.9100 42.8701
50.9200 32.0188
50.9300 50.2654
50.9400 44.4877
50.9500 51.3659
50.9600 47.4094
50.9700 44.3962
50.9800 40.9409
50.9900 39.4008
51.0000 53.6505
51.0100 49.3775
51.0200 44.5837
51.0300 43.0410
51.0400 46.8214
51.0500 52.1380
51.0600 40.4129
51.0700 45.9925
51.0800 51.9693
51.0900 44.9232
51.1000 46.0261
51.1100 49.3209
51.1200 54.1001
51.1300 48.2981
51.1400 45.5759
51.1500 45.0965
51.1600 46.1132
51.1700 48.3252
51.1800 51.7520
51.1900 49.8384
51.2000 53.1409
51.2100 46.2368
51.2200 46.9906
51.2300 54.2320
51.2400 50.4462
51.2500 45.5763
51.2600 48.6836
51.2700 45.3204
51.2800 34.9315
51.2900 57.7409
51.3000 52.1296
51.3100 40.2801
51.3200 45.9486
51.3300 37.2229
51.3400 44.4943
51.3500 48.3349
51.3600 55.9206
51.3700 38.6686
51.3800 47.6938
51.3900 52.1386
51.4000 46.9290
51.4100 48.4110
51.4200 46.2230
51.4300 48.3946
51.4400 51.3472
51.4500 49.4811
51.4600 55.7159
51.4700 41.1204
51.4800 46.1857
51.4900 60.2162
51.5000 47.0110
51.5100 37.2467
51.5200 48.9402
51.5300 42.4428
51.5400 45.1416
51.5500 45.8032
51.5600 45.9188
51.5700 34.3814
51.5800 36.3079
51.5900 38.6328
51.6000 39.7256
51.6100 44.5395
51.6200 52.6945
51.6300 50.4570
51.6400 54.1989
51.6500 48.3527
51.6600 36.4090
51.6700 52.2506
51.6800 47.0916
51.6900 49.7243
51.7000 64.5554
