#Collected Data-117
#Intensity_unit=counts
#Attenuator_coefficient=1.000000
40.0000 48.0510
40.0100 55.6284
40.0200 34.9514
40.0300 37.4047
40.0400 44.6414
40.0500 50.8633
40.0600 59.9769
40.0700 54.4055
40.0800 48.7778
40.0900 55.8433
40.1000 55.3386
40.1100 47.4381
40.1200 41.0091
40.1300 56.5234
40.1400 40.5307
40.1500 48.1719
40.1600 50.2346
40.1700 49.9375
40.1800 50.3803
40.1900 42.2763
40.2000 49.2490
40.2100 55.5601
40.2200 51.6760
40.2300 42.6477
40.2400 43.5974
40.2500 67.4324
40.2600 40.8709
40.2700 61.3348
40.2800 51.8548
40.2900 54.3177
40.3000 36.8747
40.3100 48.9139
40.3200 55.9713
40.3300 50.0634
40.3400 49.5607
40.3500 47.4040
40.3600 43.6300
40.3700 39.2924
40.3800 50.1059
40.3900 37.4235
40.4000 39.8434
40.4100 47.9250
40.4200 55.5246
40.4300 55.8750
40.4400 47.5355
40.4500 53.9121
40.4600 47.1069
40.4700 44.2907
40.4800 50.3563
40.4900 63.7987
40.5000 44.4749
40.5100 45.0810
40.5200 48.8089
40.5300 59.1197
40.5400 40.5388
40.5500 49.8781
40.5600 47.4183
40.5700 52.6199
40.5800 46.4125
40.5900 46.6394
40.6000 54.9506
40.6100 49.4092
40.6200 46.4731
40.6300 45.7161
40.6400 52.5542
40.6500 53.6913
40.6600 43.5977
40.6700 39.9762
40.6800 54.8818
40.6900 59.4295
40.7000 48.3332
40.7100 47.3123
40.7200 58.9234
40.7300 53.3524
40.7400 64.6356
40.7500 49.0915
40.7600 41.6844
40.7700 41.3427
40.7800 49.6532
40.7900 55.1539
40.8000 49.9109
40.8100 47.9807
40.8200 50.0065
40.8300 52.8363
40.8400 63.2800
40.8500 43.7476
40.8600 47.5051
40.8700 49.2215
40.8800 50.2226
40.8900 56.9377
40.9000 45.3021
40.9100 44.3977
40.9200 48.1549
40.9300 56.4713
40.9400 46.4752
40.9500 56.1665
40.9600 46.7661
40.9700 48.8669
40.9800 54.7247
40.9900 51.1843
41.0000 42.7400
41.0100 41.3030
41.0200 44.4163
41.0300 55.9453
41.0400 39.9135
41.0500 43.8103
41.0600 40.3696
41.0700 54.5398
41.0800 49.1526
41.0900 59.2024
41.1000 43.5157
41.1100 55.9107
41.1200 52.2758
41.1300 50.7230
41.1400 40.6991
41.1500 45.3955
41.1600 44.7598
41.1700 47.7930
41.1800 59.2875
41.1900 52.3159
41.2000 51.0749
41.2100 60.3413
41.2200 47.6685
41.2300 48.2149
41.2400 58.7522
41.2500 49.2417
41.2600 52.8093
41.2700 49.7982
41.2800 56.7797
41.2900 54.7779
41.3000 52.1623
41.3100 64.7981
41.3200 55.2398
41.3300 60.5338
41.3400 55.9313
41.3500 40.5836
41.3600 47.8774
41.3700 59.3392
41.3800 53.3956
41.3900 43.2850
41.4000 51.2688
41.4100 45.1564
41.4200 43.4427
41.4300 52.4080
41.4400 62.6958
41.4500 47.9605
41.4600 60.0199
41.4700 57.3929
41.4800 61.8965
41.4900 61.9840
41.5000 51.9869
41.5100 45.1345
41.5200 58.1102
41.5300 46.6866
41.5400 74.5104
41.5500 45.0395
41.5600 51.6892
41.5700 47.5107
41.5800 53.0345
41.5900 47.2778
41.6000 44.2854
41.6100 53.2094
41.6200 52.8807
41.6300 49.3693
41.6400 49.8977
41.6500 49.7759
41.6600 52.0292
41.6700 61.6812
41.6800 54.1834
41.6900 55.3584
41.7000 50.6056
41.7100 49.7601
41.7200 51.7494
41.7300 39.6379
41.7400 48.8036
41.7500 51.8046
41.7600 58.0441
41.7700 58.4667
41.7800 34.1954
41.7900 48.5217
41.8000 55.1506
41.8100 54.0127
41.8200 53.5607
41.8300 61.9908
41.8400 43.9464
41.8500 60.4903
41.8600 53.5759
41.8700 57.4200
41.8800 46.2067
41.8900 55.4531
41.9000 59.3124
41.9100 47.4880
41.9200 50.4463
41.9300 52.8664
41.9400 56.1278
41.9500 52.6436
41.9600 60.9189
41.9700 49.4142
41.9800 53.9299
41.9900 52.9663
42.0000 61.5365
42.0100 56.2533
42.0200 65.7803
42.0300 64.3181
42.0400 59.3818
42.0500 57.3420
42.0600 48.9665
42.0700 59.3157
42.0800 55.8214
42.0900 71.9539
42.1000 59.1747
42.1100 57.2398
42.1200 63.2284
42.1300 54.3088
42.1400 54.9242
42.1500 51.3245
42.1600 55.6678
42.1700 48.4656
42.1800 48.4103
42.1900 59.2028
42.2000 44.9187
42.2100 38.8083
42.2200 45.4217
42.2300 57.8505
42.2400 58.4732
42.2500 61.6287
42.2600 51.1097
42.2700 56.8343
42.2800 55.4824
42.2900 65.8279
42.3000 45.0996
42.3100 51.1051
42.3200 45.1242
42.3300 54.3291
42.3400 51.0381
42.3500 72.3787
42.3600 53.4279
42.3700 53.4739
42.3800 62.5078
42.3900 64.2089
42.4000 62.6804
42.4100 53.8187
42.4200 60.2742
42.4300 54.8252
42.4400 47.0384
42.4500 61.6129
42.4600 54.8090
42.4700 67.9713
42.4800 60.6974
42.4900 54.7052
42.5000 52.8259
42.5100 65.4337
42.5200 52.3651
42.5300 50.8128
42.5400 43.8704
42.5500 55.9369
42.5600 60.9509
42.5700 44.7885
42.5800 52.1363
42.5900 51.9530
42.6000 61.0886
42.6100 61.0527
42.6200 64.6775
42.6300 51.2232
42.6400 48.0695
42.6500 58.3316
42.6600 56.1428
42.6700 67.9841
42.6800 72.6786
42.6900 62.1861
42.7000 57.3696
42.7100 54.8069
42.7200 48.9123
42.7300 45.9106
42.7400 55.0599
42.7500 47.2261
42.7600 57.5797
42.7700 61.6030
42.7800 65.9093
42.7900 57.5131
42.8000 51.5453
42.8100 71.2175
42.8200 60.5101
42.8300 58.4168
42.8400 66.4496
42.8500 56.6045
42.8600 63.2096
42.8700 61.9396
42.8800 72.4680
42.8900 67.2277
42.9000 65.8113
42.9100 54.4366
42.9200 60.9366
42.9300 67.9139
42.9400 56.1568
42.9500 57.5489
42.9600 52.9979
42.9700 66.8490
42.9800 59.5373
42.9900 52.1005
43.0000 56.1130
43.0100 60.1333
43.0200 52.7282
43.0300 58.4901
43.0400 70.1664
43.0500 68.6841
43.0600 66.6970
43.0700 61.6373
43.0800 81.1677
43.0900 64.0011
43.1000 82.0085
43.1100 61.4510
43.1200 67.5079
43.1300 53.8470
43.1400 54.9450
43.1500 54.3479
43.1600 53.2507
43.1700 61.1501
43.1800 61.0107
43.1900 63.8294
43.2000 62.7720
43.2100 61.6313
43.2200 58.6349
43.2300 62.1956
43.2400 67.0933
43.2500 62.2396
43.2600 57.4412
43.2700 64.3604
43.2800 58.9827
43.2900 68.8229
43.3000 74.8594
43.3100 55.9780
43.3200 68.3480
43.3300 66.8775
43.3400 70.7514
43.3500 76.1295
43.3600 51.4779
43.3700 59.6722
43.3800 62.8542
43.3900 64.8268
43.4000 73.1894
43.4100 61.7188
43.4200 66.4762
43.4300 59.9569
43.4400 59.6971
43.4500 68.6998
43.4600 70.3167
43.4700 71.3431
43.4800 61.5000
43.4900 63.9039
43.5000 61.4298
43.5100 58.8720
43.5200 59.7750
43.5300 59.0520
43.5400 65.8741
43.5500 68.8836
43.5600 60.9460
43.5700 73.4469
43.5800 58.3750
43.5900 67.9259
43.6000 69.5578
43.6100 76.7777
43.6200 59.3431
43.6300 71.2404
43.6400 76.4563
43.6500 66.3839
43.6600 69.6977
43.6700 59.8223
43.6800 66.9794
43.6900 64.4566
43.7000 68.6590
43.7100 62.8376
43.7200 71.9475
43.7300 63.0469
43.7400 60.5246
43.7500 70.4516
43.7600 63.4246
43.7700 60.8816
43.7800 80.8012
43.7900 74.2343
43.8000 68.9288
43.8100 74.3795
43.8200 66.1307
43.8300 53.7075
43.8400 57.0666
43.8500 64.2865
43.8600 67.6563
43.8700 56.0922
43.8800 72.8086
43.8900 66.2154
43.9000 58.8667
43.9100 55.3537
43.9200 66.9368
43.9300 64.6068
43.9400 62.8310
43.9500 59.0137
43.9600 59.9937
43.9700 72.6552
43.9800 76.9195
43.9900 61.6355
44.0000 64.3368
44.0100 54.3854
44.0200 55.1047
44.0300 55.3159
44.0400 58.1305
44.0500 59.5717
44.0600 73.1310
44.0700 64.5022
44.0800 60.7138
44.0900 60.3928
44.1000 67.8334
44.1100 62.2800
44.1200 65.8906
44.1300 56.4227
44.1400 49.2656
44.1500 67.2026
44.1600 64.4957
44.1700 68.6808
44.1800 72.4706
44.1900 68.0400
44.2000 63.9656
44.2100 65.3401
44.2200 68.5919
44.2300 62.0482
44.2400 67.4005
44.2500 77.0921
44.2600 75.8414
44.2700 62.3203
44.2800 66.8855
44.2900 62.9715
44.3000 71.9124
44.3100 57.5227
44.3200 61.2684
44.3300 67.2274
44.3400 62.2800
44.3500 70.2318
44.3600 67.0337
44.3700 72.0547
44.3800 56.5230
44.3900 51.1434
44.4000 78.0618
44.4100 55.0971
44.4200 59.7931
44.4300 69.9563
44.4400 64.8936
44.4500 55.1498
44.4600 58.6379
44.4700 69.3047
44.4800 71.9393
44.4900 59.7409
44.5000 56.0272
44.5100 64.3468
44.5200 64.4414
44.5300 65.3566
44.5400 61.0733
44.5500 61.7052
44.5600 57.4692
44.5700 62.3436
44.5800 62.1970
44.5900 56.0341
44.6000 70.4873
44.6100 77.1376
44.6200 66.0024
44.6300 61.1746
44.6400 70.6764
44.6500 56.2161
44.6600 71.1725
44.6700 80.2702
44.6800 59.9095
44.6900 57.0330
44.7000 62.9284
44.7100 58.2346
44.7200 58.3781
44.7300 52.1463
44.7400 61.6036
44.7500 73.1189
44.7600 74.4963
44.7700 56.8940
44.7800 62.0045
44.7900 57.1716
44.8000 66.4519
44.8100 50.1293
44.8200 69.6066
44.8300 49.7106
44.8400 66.0787
44.8500 70.9071
44.8600 58.4861
44.8700 71.4798
44.8800 62.5904
44.8900 67.4563
44.9000 58.7777
44.9100 53.4661
44.9200 59.7177
44.9300 65.7983
44.9400 64.2227
44.9500 58.8650
44.9600 67.2133
44.9700 72.5040
44.9800 68.8306
44.9900 67.7776
45.0000 67.4541
45.0100 76.4428
45.0200 69.7305
45.0300 57.5924
45.0400 53.9186
45.0500 62.4906
45.0600 68.0324
45.0700 68.6986
45.0800 70.4810
45.0900 74.1231
45.1000 72.7538
45.1100 61.6734
45.1200 53.4234
45.1300 70.7452
45.1400 73.1256
45.1500 64.7840
45.1600 70.3435
45.1700 61.6868
45.1800 60.7419
45.1900 59.8739
45.2000 53.5161
45.2100 59.5435
45.2200 69.4238
45.2300 69.5683
45.2400 54.1886
45.2500 63.7022
45.2600 71.8270
45.2700 62.6517
45.2800 78.1262
45.2900 65.9426
45.3000 73.1217
45.3100 61.2979
45.3200 60.7120
45.3300 56.9652
45.3400 74.8676
45.3500 66.6715
45.3600 61.0914
45.3700 67.1327
45.3800 60.1019
45.3900 65.5763
45.4000 64.2114
45.4100 58.0872
45.4200 54.0636
45.4300 66.6433
45.4400 74.9427
45.4500 52.5707
45.4600 59.7192
45.4700 55.8033
45.4800 55.7669
45.4900 55.9689
45.5000 50.8450
45.5100 54.7826
45.5200 59.1187
45.5300 70.6650
45.5400 56.3687
45.5500 60.7623
45.5600 61.2318
45.5700 57.7502
45.5800 58.8422
45.5900 63.6051
45.6000 60.1969
45.6100 79.9434
45.6200 66.0445
45.6300 55.4543
45.6400 63.5867
45.6500 53.1247
45.6600 57.0373
45.6700 54.6868
45.6800 63.5622
45.6900 57.0432
45.7000 59.2464
45.7100 62.9922
45.7200 83.3091
45.7300 53.7874
45.7400 58.1045
45.7500 53.1925
45.7600 59.3582
45.7700 72.9512
45.7800 66.8176
45.7900 59.8572
45.8000 60.9909
45.8100 53.7856
45.8200 68.0062
45.8300 54.3079
45.8400 56.8167
45.8500 55.8818
45.8600 61.0445
45.8700 59.6546
45.8800 47.1616
45.8900 49.3025
45.9000 53.6925
45.9100 52.1812
45.9200 66.7394
45.9300 56.0516
45.9400 52.9586
45.9500 55.8211
45.9600 50.2480
45.9700 68.5036
45.9800 52.6636
45.9900 56.2296
46.0000 59.7851
46.0100 59.3080
46.0200 60.5110
46.0300 61.4385
46.0400 53.8656
46.0500 60.0986
46.0600 53.6581
46.0700 52.2245
46.0800 56.3674
46.0900 41.1547
46.1000 63.2436
46.1100 56.2902
46.1200 52.0208
46.1300 61.1974
46.1400 63.2583
46.1500 63.1383
46.1600 60.9946
46.1700 54.5032
46.1800 53.5170
46.1900 62.7440
46.2000 55.5455
46.2100 61.1083
46.2200 41.8228
46.2300 47.6408
46.2400 52.5053
46.2500 69.9479
46.2600 66.7326
46.2700 53.4694
46.2800 55.1640
46.2900 46.0908
46.3000 61.6114
46.3100 52.7091
46.3200 61.8186
46.3300 41.8651
46.3400 63.5668
46.3500 60.4299
46.3600 55.6978
46.3700 68.1444
46.3800 53.5131
46.3900 64.1526
46.4000 55.0152
46.4100 59.5895
46.4200 55.6939
46.4300 55.5193
46.4400 52.6127
46.4500 52.7482
46.4600 52.5330
46.4700 54.9311
46.4800 48.5211
46.4900 64.2706
46.5000 62.6755
46.5100 43.1444
46.5200 53.9402
46.5300 53.0163
46.5400 59.0214
46.5500 50.1552
46.5600 62.6760
46.5700 44.6595
46.5800 45.6111
46.5900 51.6291
46.6000 57.4503
46.6100 49.5889
46.6200 48.9200
46.6300 47.8488
46.6400 53.7766
46.6500 42.1061
46.6600 46.7575
46.6700 66.8151
46.6800 56.0372
46.6900 65.3376
46.7000 53.0217
46.7100 40.6466
46.7200 54.4514
46.7300 52.3303
46.7400 46.2197
46.7500 60.8776
46.7600 60.0607
46.7700 53.5591
46.7800 59.3815
46.7900 52.0369
46.8000 50.5315
46.8100 58.8892
46.8200 46.2683
46.8300 52.2365
46.8400 47.8464
46.8500 50.0584
46.8600 51.0594
46.8700 42.0317
46.8800 37.6361
46.8900 50.7957
46.9000 51.1259
46.9100 48.8163
46.9200 57.9992
46.9300 45.8311
46.9400 63.7254
46.9500 57.0808
46.9600 50.6949
46.9700 49.2787
46.9800 59.1047
46.9900 56.8315
47.0000 44.1432
47.0100 40.7676
47.0200 42.6489
47.0300 37.6398
47.0400 54.3917
47.0500 53.8563
47.0600 47.2517
47.0700 53.4268
47.0800 42.8014
47.0900 52.1542
47.1000 52.3979
47.1100 48.7722
47.1200 49.6080
47.1300 46.2754
47.1400 43.0023
47.1500 53.7311
47.1600 60.6108
47.1700 46.0969
47.1800 51.1726
47.1900 45.4863
47.2000 50.3603
47.2100 42.4210
47.2200 43.7999
47.2300 56.1674
47.2400 43.0048
47.2500 55.7038
47.2600 57.2220
47.2700 52.5714
47.2800 54.7469
47.2900 48.6918
47.3000 37.3782
47.3100 57.7723
47.3200 52.8554
47.3300 45.2712
47.3400 45.0034
47.3500 37.7849
47.3600 51.2049
47.3700 59.1007
47.3800 49.8715
47.3900 37.2004
47.4000 61.6936
47.4100 55.2850
47.4200 51.8611
47.4300 45.9205
47.4400 50.2963
47.4500 53.3949
47.4600 53.2744
47.4700 44.5051
47.4800 42.6944
47.4900 52.9681
47.5000 54.8254
47.5100 63.9152
47.5200 44.9706
47.5300 44.2328
47.5400 47.7928
47.5500 42.2350
47.5600 40.0402
47.5700 47.0011
47.5800 47.5024
47.5900 51.5705
47.6000 47.4509
47.6100 49.0446
47.6200 49.2882
47.6300 49.4052
47.6400 42.0498
47.6500 46.8684
47.6600 56.5441
47.6700 62.5689
47.6800 45.2021
47.6900 47.8645
47.7000 43.6934
47.7100 45.9043
47.7200 46.5700
47.7300 54.3933
47.7400 52.1439
47.7500 47.8079
47.7600 48.4430
47.7700 57.9472
47.7800 47.6183
47.7900 40.8462
47.8000 38.7614
47.8100 46.4095
47.8200 45.8655
47.8300 49.8340
47.8400 54.0278
47.8500 51.4278
47.8600 60.2600
47.8700 55.5764
47.8800 50.2869
47.8900 54.2352
47.9000 41.2095
47.9100 46.7693
47.9200 50.3216
47.9300 48.3638
47.9400 50.7781
47.9500 48.5494
47.9600 46.8141
47.9700 41.9966
47.9800 41.8724
47.9900 60.1893
48.0000 57.4887
48.0100 46.7512
48.0200 36.7487
48.0300 50.2222
48.0400 46.4229
48.0500 36.9938
48.0600 40.1967
48.0700 47.3888
48.0800 52.0653
48.0900 56.3590
48.1000 51.2422
48.1100 49.2070
48.1200 58.8833
48.1300 41.8038
48.1400 38.7259
48.1500 48.8967
48.1600 57.2119
48.1700 51.6546
48.1800 48.3764
48.1900 45.7666
48.2000 49.6770
48.2100 62.1666
48.2200 52.0173
48.2300 48.5368
48.2400 40.5786
48.2500 45.4434
48.2600 63.3221
48.2700 49.7473
48.2800 54.4171
48.2900 41.9383
48.3000 47.8242
48.3100 59.9841
48.3200 45.1788
48.3300 50.5539
48.3400 47.7657
48.3500 47.3551
48.3600 53.1618
48.3700 56.8307
48.3800 61.9896
48.3900 42.7094
48.4000 57.8992
48.4100 46.2621
48.4200 43.0070
48.4300 46.4686
48.4400 42.4257
48.4500 46.7728
48.4600 54.7830
48.4700 58.3234
48.4800 42.5622
48.4900 60.4260
48.5000 49.5494
48.5100 41.6998
48.5200 51.9899
48.5300 34.3894
48.5400 46.5678
48.5500 41.0531
48.5600 59.4289
48.5700 47.4423
48.5800 52.3234
48.5900 43.9234
48.6000 46.7547
48.6100 45.1871
48.6200 50.1773
48.6300 41.7356
48.6400 40.4907
48.6500 44.7925
48.6600 43.8438
48.6700 43.9616
48.6800 48.4985
48.6900 43.5872
48.7000 45.3165
48.7100 53.6126
48.7200 54.4824
48.7300 62.8044
48.7400 53.3075
48.7500 47.9715
48.7600 44.2412
48.7700 53.4636
48.7800 51.1317
48.7900 57.6234
48.8000 42.6768
48.8100 52.0473
48.8200 45.3214
48.8300 55.2293
48.8400 50.2261
48.8500 41.0127
48.8600 49.9283
48.8700 41.3143
48.8800 49.2298
48.8900 52.5240
48.9000 51.4510
48.9100 49.9074
48.9200 41.5639
48.9300 58.9527
48.9400 37.9875
48.9500 45.3106
48.9600 37.9322
48.9700 50.4331
48.9800 43.4414
48.9900 42.5551
49.0000 41.3068
49.0100 54.1205
49.0200 52.8147
49.0300 41.3867
49.0400 36.6657
49.0500 50.2085
49.0600 59.3200
49.0700 57.6510
49.0800 44.4704
49.0900 52.3097
49.1000 46.9144
49.1100 49.8034
49.1200 55.7447
49.1300 45.5421
49.1400 45.7295
49.1500 48.6118
49.1600 41.7186
49.1700 56.7539
49.1800 52.4873
49.1900 44.4047
49.2000 54.9211
49.2100 62.3244
49.2200 51.2853
49.2300 48.0558
49.2400 55.5270
49.2500 51.9932
49.2600 51.7348
49.2700 45.5210
49.2800 33.7495
49.2900 44.0041
49.3000 38.5084
49.3100 43.6694
49.3200 42.1806
49.3300 51.3784
49.3400 49.8525
49.3500 52.8213
49.3600 57.3970
49.3700 49.2838
49.3800 46.5969
49.3900 56.7329
49.4000 51.2877
49.4100 56.5069
49.4200 43.0594
49.4300 45.1023
49.4400 50.8279
49.4500 46.7492
49.4600 46.3810
49.4700 44.3921
49.4800 47.6473
49.4900 61.4249
49.5000 53.0105
49.5100 58.8704
49.5200 54.2647
49.5300 44.0449
49.5400 47.0121
49.5500 49.3325
49.5600 56.3045
49.5700 47.7117
49.5800 45.0644
49.5900 67.4585
49.6000 50.3810
49.6100 50.0340
49.6200 53.5838
49.6300 46.1693
49.6400 45.6577
49.6500 43.7207
49.6600 32.5532
49.6700 30.8320
49.6800 40.6201
49.6900 43.7366
49.7000 49.0179
49.7100 52.7263
49.7200 45.6446
49.7300 51.1174
49.7400 60.1619
49.7500 43.5385
49.7600 52.3515
49.7700 46.6584
49.7800 42.9975
49.7900 45.7358
49.8000 41.7250
49.8100 37.9816
49.8200 52.0042
49.8300 48.4733
49.8400 36.2164
49.8500 40.0971
49.8600 51.0384
49.8700 43.9333
49.8800 56.7551
49.8900 45.7616
49.9000 37.2925
49.9100 50.3368
49.9200 38.2603
49.9300 45.7970
49.9400 57.9997
49.9500 45.2029
49.9600 51.0362
49.9700 58.9556
49.9800 43.9578
49.9900 40.9396
50.0000 42.0091
50.0100 38.5491
50.0200 37.0805
50.0300 53.7988
50.0400 51.0412
50.0500 48.9971
50.0600 37.9412
50.0700 44.5100
50.0800 54.3043
50.0900 44.5744
50.1000 53.5212
50.1100 39.3614
50.1200 53.3211
50.1300 44.0258
50.1400 41.5442
50.1500 37.0219
50.1600 40.9497
50.1700 43.4403
50.1800 44.7253
50.1900 43.7691
50.2000 36.9212
50.2100 46.8010
50.2200 50.1364
50.2300 57.3445
50.2400 43.4919
50.2500 51.0644
50.2600 47.8346
50.2700 43.4013
50.2800 50.2042
50.2900 53.2607
50.3000 50.4714
50.3100 41.5575
50.3200 54.9393
50.3300 45.0710
50.3400 65.4511
50.3500 63.7518
50.3600 46.7364
50.3700 56.7647
50.3800 51.6814
50.3900 50.1432
50.4000 52.3523
50.4100 45.2301
50.4200 45.5363
50.4300 50.2135
50.4400 46.7517
50.4500 58.2275
50.4600 40.2028
50.4700 54.7776
50.4800 37.9435
50.4900 41.4525
50.5000 41.2877
50.5100 54.9993
50.5200 51.2827
50.5300 48.4368
50.5400 42.3159
50.5500 45.5345
50.5600 56.1705
50.5700 49.9315
50.5800 52.8643
50.5900 41.7797
50.6000 42.5192
50.6100 53.5825
50.6200 55.3957
50.6300 39.3842
50.6400 40.4347
50.6500 36.7204
50.6600 46.5430
50.6700 45.2145
50.6800 52.1869
50.6900 49.0707
50.7000 58.2228
50.7100 51.7588
50.7200 48.3354
50.7300 46.3772
50.7400 41.1935
50.7500 47.1862
50.7600 52.8629
50.7700 48.8974
50.7800 42.0284
50.7900 46.3452
50.8000 37.7476
50.8100 55.1938
50.8200 37.0741
50.8300 38.9493
50.8400 44.8147
50.8500 48.8624
50.8600 41.1139
50.8700 51.6969
50.8800 53.2961
50.8900 57.4891
50.9000 58.2394
50.9100 48.3045
50.9200 49.8990
50.9300 50.0836
50.9400 44.8384
50.9500 47.8340
50.9600 49.5763
50.9700 43.1820
50.9800 49.0912
50.9900 42.7749
51.0000 54.4067
51.0100 50.4803
51.0200 53.0576
51.0300 44.8110
51.0400 52.4664
51.0500 52.5950
51.0600 56.2392
51.0700 56.5001
51.0800 55.1858
51.0900 50.9540
51.1000 55.9217
51.1100 44.1710
51.1200 56.1742
51.1300 45.2366
51.1400 50.2198
51.1500 49.6078
51.1600 62.6600
51.1700 64.1874
51.1800 46.1999
51.1900 38.7781
51.2000 51.9584
51.2100 52.8303
51.2200 37.0714
51.2300 48.2037
51.2400 36.8173
51.2500 52.3555
51.2600 44.4678
51.2700 40.5138
51.2800 48.3170
51.2900 51.8652
51.3000 35.3698
51.3100 41.7889
51.3200 47.7663
51.3300 47.2114
51.3400 47.2308
51.3500 42.7577
51.3600 48.9338
51.3700 35.9828
51.3800 35.5914
51.3900 51.1999
51.4000 52.2178
51.4100 43.0102
51.4200 48.4666
51.4300 52.2963
51.4400 57.9767
51.4500 47.8403
51.4600 58.3728
51.4700 48.9241
51.4800 37.6747
51.4900 55.4322
51.5000 49.5077
51.5100 41.6385
51.5200 52.1944
51.5300 46.3744
51.5400 43.3077
51.5500 51.4415
51.5600 42.1701
51.5700 43.9385
51.5800 58.9528
51.5900 52.7406
51.6000 31.1136
51.6100 47.0889
51.6200 47.3585
51.6300 51.2571
51.6400 46.2668
51.6500 45.0427
51.6600 50.8525
51.6700 47.0790
51.6800 53.8983
51.6900 45.5721
51.7000 41.7366
