#Collected Data-76
#Intensity_unit=counts
#Attenuator_coefficient=1.000000
40.0000 35.9534
40.0500 49.3036
40.1000 29.3510
40.1500 19.4918
40.2000 40.1044
40.2500 37.7786
40.3000 43.2514
40.3500 47.9477
40.4000 42.8697
40.4500 31.3926
40.5000 38.5006
40.5500 38.5652
40.6000 42.9458
40.6500 32.4879
40.7000 45.4255
40.7500 38.8654
40.8000 43.8990
40.8500 43.2753
40.9000 24.9307
40.9500 33.5764
41.0000 43.2525
41.0500 53.7805
41.1000 30.3844
41.1500 41.8174
41.2000 42.6187
41.2500 36.5769
41.3000 34.9481
41.3500 35.1574
41.4000 30.5596
41.4500 38.5239
41.5000 36.0489
41.5500 38.4193
41.6000 29.5316
41.6500 31.7821
41.7000 31.6532
41.7500 41.5305
41.8000 39.8351
41.8500 38.3954
41.9000 31.3759
41.9500 28.2577
42.0000 37.9984
42.0500 29.8663
42.1000 39.3122
42.1500 30.8236
42.2000 34.4917
42.2500 26.7828
42.3000 41.7582
42.3500 41.4468
42.4000 29.0013
42.4500 32.7547
42.5000 41.7816
42.5500 33.7565
42.6000 49.3202
42.6500 34.1417
42.7000 29.5650
42.7500 45.3565
42.8000 33.7901
42.8500 37.7794
42.9000 40.2087
42.9500 35.9351
43.0000 34.4615
43.0500 30.1410
43.1000 29.9336
43.1500 40.9904
43.2000 46.4895
43.2500 28.6286
43.3000 33.2123
43.3500 33.3570
43.4000 35.9536
43.4500 35.7296
43.5000 37.5791
43.5500 39.5269
43.6000 35.8882
43.6500 43.5560
43.7000 47.5850
43.7500 34.7925
43.8000 41.2790
43.8500 45.0038
43.9000 44.5060
43.9500 44.6922
44.0000 43.5094
44.0500 43.8252
44.1000 46.2304
44.1500 54.5537
44.2000 56.4172
44.2500 72.0402
44.3000 74.7581
44.3500 107.4411
44.4000 196.0956
44.4500 388.1176
44.5000 933.6332
44.5500 1535.3569
44.6000 1805.8506
44.6500 1332.3624
44.7000 695.8348
44.7500 299.9368
44.8000 153.4829
44.8500 104.7662
44.9000 63.6463
44.9500 52.3047
45.0000 63.0349
45.0500 54.2844
45.1000 41.4708
45.1500 49.9978
45.2000 31.9184
45.2500 33.9643
45.3000 42.6439
45.3500 30.4026
45.4000 35.8088
45.4500 31.4839
45.5000 24.9257
45.5500 35.6105
45.6000 33.1593
45.6500 32.7227
45.7000 29.2811
45.7500 28.9902
45.8000 35.1032
45.8500 41.5432
45.9000 37.2482
45.9500 47.2041
46.0000 29.7113
46.0500 27.1491
46.1000 30.9123
46.1500 54.4322
46.2000 30.7181
46.2500 38.6025
46.3000 35.1552
46.3500 21.0294
46.4000 20.2039
46.4500 38.3328
46.5000 24.7301
46.5500 25.5284
46.6000 24.4974
46.6500 35.4523
46.7000 35.0095
46.7500 28.0100
46.8000 23.1775
46.8500 31.7144
46.9000 36.1548
46.9500 36.7447
47.0000 33.9529
47.0500 30.5810
47.1000 38.4029
47.1500 34.3291
47.2000 27.0902
47.2500 33.5909
47.3000 33.4702
47.3500 26.9467
47.4000 29.0786
47.4500 37.3651
47.5000 24.3114
47.5500 33.4045
47.6000 49.4399
47.6500 38.2053
47.7000 35.7026
47.7500 34.7815
47.8000 42.1992
47.8500 24.1757
47.9000 33.3117
47.9500 37.0695
48.0000 30.1618
48.0500 31.1592
48.1000 31.0074
48.1500 30.9875
48.2000 41.1467
48.2500 44.0820
48.3000 27.3278
48.3500 25.1238
48.4000 25.5835
48.4500 35.6291
48.5000 30.2138
48.5500 30.1269
48.6000 37.1690
48.6500 37.5491
48.7000 30.3080
48.7500 36.2010
48.8000 36.7494
48.8500 38.5004
48.9000 22.4033
48.9500 21.8485
49.0000 29.7056
49.0500 34.5606
49.1000 33.8712
49.1500 31.7099
49.2000 33.0921
49.2500 36.3854
49.3000 23.8398
49.3500 34.8406
49.4000 34.3508
49.4500 24.0900
49.5000 36.3527
49.5500 33.6891
49.6000 31.6449
49.6500 37.5174
49.7000 30.4201
49.7500 27.4650
49.8000 26.6867
49.8500 24.8483
49.9000 37.2210
49.9500 25.0773
50.0000 18.4361
50.0500 33.1636
50.1000 32.9176
50.1500 41.1764
50.2000 35.5821
50.2500 32.5983
50.3000 41.0388
50.3500 48.7310
50.4000 34.1577
50.4500 35.7899
50.5000 39.5793
50.5500 37.8482
50.6000 27.8029
50.6500 29.3678
50.7000 41.4553
50.7500 52.6161
50.8000 35.8396
50.8500 35.7346
50.9000 28.0737
50.9500 35.0516
51.0000 35.7444
51.0500 30.0050
51.1000 22.9840
51.1500 35.6693
51.2000 35.5324
51.2500 35.5497
51.3000 19.1604
51.3500 22.7842
51.4000 33.6770
51.4500 27.9124
51.5000 26.5908
51.5500 28.3835
51.6000 35.5099
51.6500 32.0566
51.7000 42.6384
51.7500 38.1596
51.8000 26.1248
51.8500 28.5612
51.9000 24.9543
51.9500 32.1656
52.0000 28.0354
52.0500 32.5576
52.1000 25.9237
52.1500 22.2608
52.2000 18.3813
52.2500 31.8822
52.3000 23.0473
52.3500 35.9973
52.4000 33.9030
52.4500 34.6542
52.5000 31.3164
52.5500 25.4413
52.6000 34.2617
52.6500 38.6472
52.7000 32.2549
52.7500 31.9038
52.8000 32.2016
52.8500 38.7738
52.9000 22.0230
52.9500 17.4382
53.0000 27.1595
53.0500 28.5527
53.1000 30.2704
53.1500 33.3825
53.2000 28.4977
53.2500 30.6060
53.3000 23.6575
53.3500 27.1034
53.4000 27.6034
53.4500 29.2561
53.5000 32.4905
53.5500 27.2615
53.6000 23.5012
53.6500 26.5321
53.7000 26.6637
53.7500 31.9650
53.8000 34.2897
53.8500 25.5540
53.9000 35.4068
53.9500 30.2825
54.0000 23.7218
54.0500 32.0434
54.1000 34.8024
54.1500 27.4832
54.2000 24.3028
54.2500 38.1094
54.3000 39.4693
54.3500 46.9149
54.4000 33.7736
54.4500 42.2222
54.5000 34.9511
54.5500 23.3855
54.6000 34.7055
54.6500 30.5538
54.7000 32.8359
54.7500 41.2753
54.8000 23.8369
54.8500 30.8411
54.9000 43.1432
54.9500 35.3560
55.0000 27.9086
55.0500 28.1334
55.1000 34.6833
55.1500 28.8190
55.2000 24.6401
55.2500 35.4187
55.3000 35.7932
55.3500 26.6578
55.4000 29.7648
55.4500 22.5431
55.5000 25.4467
55.5500 28.3838
55.6000 29.0777
55.6500 34.3471
55.7000 39.2153
55.7500 28.2105
55.8000 34.3819
55.8500 29.4367
55.9000 30.6546
55.9500 35.2387
56.0000 17.0272
56.0500 30.1544
56.1000 17.5297
56.1500 29.3911
56.2000 26.1053
56.2500 38.2484
56.3000 34.5782
56.3500 26.7864
56.4000 30.7461
56.4500 38.8441
56.5000 35.6936
56.5500 32.2565
56.6000 24.2466
56.6500 32.3309
56.7000 25.2001
56.7500 36.9618
56.8000 27.6543
56.8500 33.2444
56.9000 30.8023
56.9500 29.8762
57.0000 32.6169
57.0500 35.5342
57.1000 29.5889
57.1500 43.7591
57.2000 31.5410
57.2500 40.6793
57.3000 25.8413
57.3500 15.5405
57.4000 30.2170
57.4500 16.1498
57.5000 21.1677
57.5500 30.1588
57.6000 29.7560
57.6500 32.8089
57.7000 28.7436
57.7500 28.2639
57.8000 37.6233
57.8500 34.8634
57.9000 31.1489
57.9500 31.7408
58.0000 18.7754
58.0500 25.1757
58.1000 32.5294
58.1500 25.7341
58.2000 16.7979
58.2500 26.6828
58.3000 24.7974
58.3500 26.7004
58.4000 26.8662
58.4500 29.5598
58.5000 35.9594
58.5500 38.5383
58.6000 31.2466
58.6500 29.4644
58.7000 38.2350
58.7500 29.2873
58.8000 29.9861
58.8500 29.3686
58.9000 32.0994
58.9500 40.6817
59.0000 31.5742
59.0500 42.9725
59.1000 35.6642
59.1500 41.3237
59.2000 33.5060
59.2500 31.8079
59.3000 32.3417
59.3500 24.6916
59.4000 29.6589
59.4500 31.0996
59.5000 30.3714
59.5500 29.8726
59.6000 25.4399
59.6500 21.2179
59.7000 33.5796
59.7500 35.1024
59.8000 37.8080
59.8500 31.5957
59.9000 33.8034
59.9500 29.4474
60.0000 37.2433
60.0500 27.4410
60.1000 34.5908
60.1500 32.9919
60.2000 32.5289
60.2500 40.6798
60.3000 25.9670
60.3500 30.5970
60.4000 28.7849
60.4500 17.8627
60.5000 21.3383
60.5500 29.8729
60.6000 29.9214
60.6500 36.4642
60.7000 26.6280
60.7500 29.9671
60.8000 39.6306
60.8500 35.8177
60.9000 37.3352
60.9500 39.0127
61.0000 23.0591
61.0500 28.9609
61.1000 21.0368
61.1500 33.9140
61.2000 45.5104
61.2500 31.6965
61.3000 26.7141
61.3500 34.7994
61.4000 41.6043
61.4500 36.0413
61.5000 34.9310
61.5500 29.8177
61.6000 29.7473
61.6500 28.0122
61.7000 26.7147
61.7500 35.5499
61.8000 31.2730
61.8500 21.4263
61.9000 34.0777
61.9500 33.2066
62.0000 36.6572
62.0500 35.0088
62.1000 28.6669
62.1500 23.1215
62.2000 38.0178
62.2500 34.8652
62.3000 26.6907
62.3500 30.8277
62.4000 30.6088
62.4500 31.9414
62.5000 29.5631
62.5500 37.5327
62.6000 28.5518
62.6500 23.9083
62.7000 31.5126
62.7500 21.3822
62.8000 38.0105
62.8500 26.6180
62.9000 28.0272
62.9500 37.0113
63.0000 31.8078
63.0500 36.3406
63.1000 31.3645
63.1500 43.3611
63.2000 25.2117
63.2500 31.8898
63.3000 35.9330
63.3500 28.6440
63.4000 30.6136
63.4500 33.0928
63.5000 37.3550
63.5500 25.3814
63.6000 27.6046
63.6500 30.0218
63.7000 21.9354
63.7500 33.9409
63.8000 22.7538
63.8500 23.2378
63.9000 33.6434
63.9500 27.5842
64.0000 26.6590
64.0500 33.2619
64.1000 34.8572
64.1500 20.5684
64.2000 21.5430
64.2500 27.9756
64.3000 38.2445
64.3500 34.7548
64.4000 27.7506
64.4500 42.0997
64.5000 30.3378
64.5500 42.1449
64.6000 58.4474
64.6500 63.3706
64.7000 82.7807
64.7500 102.6034
64.8000 135.6492
64.8500 149.3605
64.9000 130.8585
64.9500 108.8060
65.0000 100.3727
65.0500 68.3242
65.1000 65.7894
65.1500 50.3756
65.2000 29.8279
65.2500 36.7409
65.3000 40.7853
65.3500 35.0605
65.4000 35.5205
65.4500 40.9345
65.5000 24.1354
65.5500 35.0711
65.6000 33.3703
65.6500 44.4460
65.7000 22.6257
65.7500 35.1371
65.8000 36.7240
65.8500 35.6131
65.9000 26.9584
65.9500 36.5082
66.0000 47.1958
66.0500 34.1294
66.1000 28.9445
66.1500 27.4213
66.2000 32.3694
66.2500 34.8194
66.3000 34.4838
66.3500 31.4067
66.4000 37.2854
66.4500 32.1781
66.5000 24.7274
66.5500 29.4899
66.6000 29.2102
66.6500 29.0114
66.7000 34.8912
66.7500 37.9108
66.8000 27.7566
66.8500 27.2009
66.9000 49.2718
66.9500 82.6398
67.0000 57.2129
67.0500 36.6893
67.1000 25.4369
67.1500 38.3499
67.2000 39.0681
67.2500 20.4217
67.3000 37.6475
67.3500 26.4527
67.4000 31.8022
67.4500 29.1736
67.5000 26.5016
67.5500 27.9331
67.6000 28.1480
67.6500 32.3449
67.7000 26.3092
67.7500 21.3369
67.8000 28.3208
67.8500 32.0294
67.9000 25.1722
67.9500 29.7973
68.0000 19.4615
68.0500 22.4658
68.1000 34.1349
68.1500 39.8425
68.2000 29.2741
68.2500 24.9104
68.3000 22.0618
68.3500 25.6283
68.4000 25.7960
68.4500 34.6060
68.5000 35.0552
68.5500 22.6447
68.6000 21.1903
68.6500 20.4640
68.7000 28.1370
68.7500 37.5853
68.8000 26.6977
68.8500 28.7412
68.9000 23.2442
68.9500 27.0590
69.0000 38.5583
69.0500 36.0947
69.1000 46.0984
69.1500 18.1181
69.2000 26.8449
69.2500 26.3054
69.3000 29.9374
69.3500 29.7689
69.4000 28.6955
69.4500 33.9213
69.5000 26.7333
69.5500 26.0590
69.6000 26.2754
69.6500 22.8438
69.7000 23.0771
69.7500 32.4680
69.8000 34.0765
69.8500 24.9740
69.9000 27.5592
69.9500 30.0315
70.0000 15.4171
70.0500 23.0263
70.1000 29.0686
70.1500 30.2694
70.2000 15.9326
70.2500 32.4093
70.3000 30.3323
70.3500 30.3063
70.4000 24.3065
70.4500 25.2417
70.5000 27.1996
70.5500 31.6037
70.6000 35.1086
70.6500 28.2248
70.7000 28.7356
70.7500 24.0555
70.8000 22.1409
70.8500 27.5577
70.9000 29.4738
70.9500 26.2197
71.0000 28.9834
71.0500 27.2757
71.1000 44.3875
71.1500 25.0243
71.2000 20.7918
71.2500 25.1199
71.3000 24.2824
71.3500 29.3978
71.4000 22.3779
71.4500 29.1399
71.5000 24.8950
71.5500 29.6420
71.6000 33.4365
71.6500 21.3308
71.7000 30.2425
71.7500 23.2273
71.8000 28.3339
71.8500 28.7320
71.9000 21.6711
71.9500 22.1916
72.0000 24.7131
72.0500 22.6431
72.1000 31.6595
72.1500 36.5692
72.2000 24.3035
72.2500 30.5878
72.3000 23.2765
72.3500 22.4286
72.4000 34.6186
72.4500 23.7162
72.5000 21.0198
72.5500 23.8403
72.6000 26.7943
72.6500 27.1129
72.7000 26.9273
72.7500 27.1775
72.8000 26.9502
72.8500 36.6194
72.9000 35.9587
72.9500 24.2134
73.0000 22.5445
73.0500 27.8025
73.1000 32.7845
73.1500 31.2823
73.2000 21.4202
73.2500 25.0705
73.3000 27.1357
73.3500 23.9235
73.4000 25.5421
73.4500 34.0591
73.5000 30.8273
73.5500 29.5245
73.6000 28.2330
73.6500 26.1851
73.7000 31.7180
73.7500 25.4770
73.8000 31.2499
73.8500 35.2175
73.9000 36.7711
73.9500 29.5307
74.0000 32.2288
74.0500 34.9811
74.1000 28.5503
74.1500 34.5003
74.2000 23.7794
74.2500 23.6033
74.3000 31.3893
74.3500 22.4866
74.4000 24.8337
74.4500 24.5200
74.5000 31.1092
74.5500 24.9048
74.6000 31.6583
74.6500 31.3002
74.7000 32.9591
74.7500 33.5119
74.8000 32.9667
74.8500 26.8179
74.9000 30.4923
74.9500 35.4674
75.0000 24.3429
75.0500 19.9704
75.1000 26.9733
75.1500 22.4737
75.2000 26.3779
75.2500 29.4684
75.3000 26.0606
75.3500 27.0861
75.4000 37.5626
75.4500 34.9681
75.5000 26.0457
75.5500 30.4093
75.6000 22.0652
75.6500 30.4534
75.7000 27.4240
75.7500 16.6082
75.8000 28.4495
75.8500 30.5525
75.9000 36.5719
75.9500 34.0858
76.0000 28.8846
76.0500 26.4761
76.1000 17.3621
76.1500 25.4097
76.2000 36.3585
76.2500 24.9562
76.3000 28.8922
76.3500 25.5171
76.4000 27.5581
76.4500 29.2104
76.5000 27.8047
76.5500 27.9540
76.6000 32.1111
76.6500 27.4863
76.7000 25.8451
76.7500 30.1771
76.8000 36.1910
76.8500 28.3420
76.9000 37.2253
76.9500 37.7657
77.0000 26.0427
77.0500 35.6095
77.1000 26.2627
77.1500 21.2607
77.2000 29.4722
77.2500 26.2838
77.3000 30.1199
77.3500 27.4752
77.4000 25.7455
77.4500 25.8655
77.5000 26.0086
77.5500 30.6376
77.6000 37.3240
77.6500 24.4244
77.7000 22.5368
77.7500 35.2856
77.8000 22.9437
77.8500 27.0891
77.9000 27.3134
77.9500 39.3456
78.0000 29.7542
78.0500 26.4098
78.1000 26.1953
78.1500 35.8253
78.2000 35.5049
78.2500 29.9581
78.3000 32.0425
78.3500 29.3717
78.4000 24.5877
78.4500 17.3071
78.5000 22.6149
78.5500 27.7271
78.6000 25.8572
78.6500 29.9138
78.7000 28.8951
78.7500 24.9419
78.8000 26.9039
78.8500 22.1763
78.9000 29.7848
78.9500 25.1661
79.0000 24.1294
79.0500 34.2097
79.1000 31.4071
79.1500 19.5371
79.2000 32.0030
79.2500 26.1292
79.3000 44.8541
79.3500 36.3650
79.4000 28.0550
79.4500 24.4877
79.5000 31.2002
79.5500 26.9844
79.6000 35.3108
79.6500 28.5371
79.7000 32.8532
79.7500 30.4088
79.8000 34.7081
79.8500 30.5066
79.9000 24.8388
79.9500 37.2528
80.0000 18.8263
80.0500 31.1504
80.1000 36.4786
80.1500 28.4803
80.2000 24.0471
80.2500 25.5735
80.3000 22.8703
80.3500 26.1580
80.4000 36.4286
80.4500 34.6985
80.5000 35.9301
80.5500 25.5990
80.6000 34.3046
80.6500 29.3880
80.7000 25.3452
80.7500 31.4074
80.8000 28.9255
80.8500 39.4212
80.9000 31.2851
80.9500 34.3070
81.0000 29.6752
81.0500 21.8901
81.1000 23.5785
81.1500 32.7865
81.2000 18.4941
81.2500 26.8519
81.3000 26.6023
81.3500 29.7527
81.4000 34.2022
81.4500 37.8907
81.5000 32.2525
81.5500 36.5596
81.6000 32.9395
81.6500 25.9721
81.7000 32.6003
81.7500 35.3591
81.8000 34.7179
81.8500 41.5873
81.9000 46.5177
81.9500 65.5576
82.0000 86.5727
82.0500 105.6863
82.1000 127.8013
82.1500 126.2556
82.2000 111.4108
82.2500 94.1025
82.3000 85.9434
82.3500 57.6913
82.4000 48.0139
82.4500 38.2499
82.5000 45.8749
82.5500 32.8902
82.6000 28.6155
82.6500 44.1499
82.7000 39.9435
82.7500 29.5464
82.8000 42.9182
82.8500 37.6767
82.9000 28.4253
82.9500 30.8734
83.0000 33.0628
83.0500 23.2708
83.1000 26.8489
83.1500 31.7454
83.2000 24.5190
83.2500 31.9099
83.3000 33.4855
83.3500 23.8922
83.4000 27.2347
83.4500 30.3956
83.5000 24.5054
83.5500 18.6530
83.6000 33.6077
83.6500 32.6163
83.7000 34.5042
83.7500 32.4733
83.8000 29.3947
83.8500 25.2390
83.9000 24.3296
83.9500 24.7690
84.0000 24.7817
84.0500 27.7157
84.1000 23.5468
84.1500 33.2767
84.2000 15.4412
84.2500 32.2510
84.3000 35.0946
84.3500 29.9674
84.4000 29.2566
84.4500 32.1419
84.5000 30.1546
84.5500 28.3124
84.6000 30.5487
84.6500 38.5350
84.7000 21.1398
84.7500 23.8266
84.8000 40.4576
84.8500 28.2562
84.9000 27.5499
84.9500 27.6890
85.0000 28.4769
85.0500 26.9059
85.1000 33.9048
85.1500 24.7616
85.2000 20.4597
85.2500 33.5677
85.3000 29.5589
85.3500 23.0553
85.4000 27.2213
85.4500 25.7768
85.5000 33.0241
85.5500 31.1808
85.6000 24.3582
85.6500 28.5870
85.7000 28.0235
85.7500 32.6504
85.8000 28.1538
85.8500 23.3768
85.9000 29.2742
85.9500 31.1678
86.0000 31.4953
86.0500 31.6545
86.1000 31.6445
86.1500 24.9577
86.2000 29.2583
86.2500 37.5804
86.3000 23.9904
86.3500 29.6203
86.4000 26.2730
86.4500 32.2933
86.5000 29.9585
86.5500 21.2357
86.6000 22.5520
86.6500 27.3310
86.7000 28.1346
86.7500 20.4604
86.8000 35.0105
86.8500 31.1890
86.9000 38.9069
86.9500 27.1987
87.0000 21.5387
87.0500 31.1592
87.1000 24.5341
87.1500 32.0738
87.2000 26.6801
87.2500 30.6933
87.3000 30.7841
87.3500 33.8891
87.4000 32.9820
87.4500 28.7066
87.5000 38.4992
87.5500 31.8888
87.6000 22.3902
87.6500 30.5635
87.7000 29.6761
87.7500 34.1947
87.8000 26.7164
87.8500 28.3780
87.9000 31.4520
87.9500 21.1944
88.0000 27.5528
88.0500 28.4868
88.1000 25.7264
88.1500 22.3958
88.2000 29.8147
88.2500 29.9072
88.3000 31.3675
88.3500 22.7591
88.4000 26.5583
88.4500 26.7970
88.5000 35.7170
88.5500 31.4610
88.6000 36.4981
88.6500 35.3849
88.7000 30.4358
88.7500 34.5093
88.8000 39.2739
88.8500 26.4088
88.9000 27.0358
88.9500 29.3783
89.0000 29.5667
89.0500 32.9437
89.1000 25.0294
89.1500 23.5376
89.2000 30.2501
89.2500 28.6149
89.3000 23.8721
89.3500 23.0913
89.4000 18.2199
89.4500 38.2235
89.5000 25.4660
89.5500 30.4391
89.6000 23.5870
89.6500 27.1315
89.7000 40.4463
89.7500 40.8403
89.8000 20.7240
89.8500 31.0603
89.9000 39.0210
89.9500 25.5341
90.0000 33.5927
90.0500 32.4974
90.1000 18.2392
90.1500 34.4334
90.2000 27.0057
90.2500 25.2624
90.3000 17.1439
90.3500 24.0478
90.4000 32.6049
90.4500 36.0227
90.5000 36.4745
90.5500 30.0485
90.6000 31.4116
90.6500 35.8518
90.7000 32.1167
90.7500 24.5646
90.8000 26.4464
90.8500 30.2304
90.9000 20.1581
90.9500 29.1309
91.0000 26.3414
91.0500 22.2817
91.1000 30.3794
91.1500 31.6429
91.2000 33.0996
91.2500 23.6976
91.3000 29.6722
91.3500 35.4884
91.4000 31.1493
91.4500 27.7493
91.5000 30.5542
91.5500 30.6566
91.6000 27.5512
91.6500 24.1948
91.7000 19.8902
91.7500 27.4674
91.8000 28.8934
91.8500 30.7489
91.9000 30.3334
91.9500 28.5802
92.0000 32.0294
92.0500 21.4994
92.1000 25.6270
92.1500 25.4567
92.2000 13.7457
92.2500 24.3071
92.3000 24.8311
92.3500 26.9461
92.4000 45.4358
92.4500 29.7721
92.5000 25.8994
92.5500 28.0096
92.6000 21.9456
92.6500 25.2545
92.7000 35.5859
92.7500 33.2454
92.8000 28.1177
92.8500 25.3871
92.9000 36.0558
92.9500 25.4705
93.0000 18.4982
93.0500 18.8073
93.1000 34.8260
93.1500 23.7596
93.2000 29.4687
93.2500 19.2927
93.3000 31.5239
93.3500 23.3991
93.4000 29.1644
93.4500 25.3894
93.5000 25.3190
93.5500 22.5727
93.6000 29.7709
93.6500 25.5869
93.7000 29.2774
93.7500 35.9256
93.8000 29.0201
93.8500 34.5620
93.9000 28.8299
93.9500 21.9493
94.0000 21.4191
94.0500 31.8480
94.1000 37.8915
94.1500 40.3518
94.2000 26.2393
94.2500 29.8153
94.3000 35.6645
94.3500 24.6206
94.4000 35.9409
94.4500 22.0083
94.5000 33.7535
94.5500 27.0510
94.6000 38.9897
94.6500 26.9308
94.7000 32.9816
94.7500 21.3963
94.8000 37.7115
94.8500 26.5702
94.9000 31.0799
94.9500 26.6333
95.0000 34.0562
95.0500 26.6934
95.1000 27.9231
95.1500 31.5074
95.2000 23.0060
95.2500 35.0173
95.3000 32.7548
95.3500 19.7755
95.4000 22.8252
95.4500 27.9794
95.5000 19.9154
95.5500 30.8119
95.6000 35.2739
95.6500 39.2374
95.7000 20.8525
95.7500 26.9950
95.8000 27.6779
95.8500 31.0937
95.9000 23.7703
95.9500 38.7592
96.0000 35.6551
96.0500 32.0878
96.1000 25.6410
96.1500 24.6005
96.2000 28.3436
96.2500 21.9427
96.3000 35.1318
96.3500 29.4235
96.4000 30.6076
96.4500 29.3571
96.5000 27.4888
96.5500 27.9421
96.6000 28.9040
96.6500 33.6141
96.7000 15.1430
96.7500 34.8352
96.8000 19.2737
96.8500 21.5965
96.9000 30.5982
96.9500 24.8131
97.0000 29.8976
97.0500 32.2515
97.1000 39.0496
97.1500 27.0747
97.2000 39.8126
97.2500 25.4833
97.3000 24.9751
97.3500 35.2988
97.4000 25.5579
97.4500 24.5449
97.5000 24.4168
97.5500 30.7349
97.6000 31.7417
97.6500 27.3502
97.7000 16.5804
97.7500 37.4852
97.8000 22.6009
97.8500 30.4818
97.9000 32.4137
97.9500 34.3168
98.0000 34.3749
98.0500 39.5645
98.1000 29.9241
98.1500 25.9062
98.2000 36.0543
98.2500 38.8036
98.3000 44.1295
98.3500 53.3158
98.4000 51.1079
98.4500 71.3204
