#Collected Data-58
#Intensity_unit=counts
#Attenuator_coefficient=1.000000
40.0000 24.5352
40.0500 36.4874
40.1000 38.6125
40.1500 28.0716
40.2000 41.0463
40.2500 42.4861
40.3000 38.2264
40.3500 48.7182
40.4000 31.1715
40.4500 37.1906
40.5000 39.9501
40.5500 39.9877
40.6000 38.2762
40.6500 41.9794
40.7000 50.4556
40.7500 37.6241
40.8000 26.8761
40.8500 32.6827
40.9000 37.2231
40.9500 45.0364
41.0000 36.8861
41.0500 32.9962
41.1000 38.5916
41.1500 29.7197
41.2000 32.1859
41.2500 36.9086
41.3000 43.6549
41.3500 40.5931
41.4000 31.9836
41.4500 37.7144
41.5000 30.6537
41.5500 39.1730
41.6000 43.0433
41.6500 39.6300
41.7000 40.7633
41.7500 25.8908
41.8000 38.8361
41.8500 40.4462
41.9000 36.0976
41.9500 37.4309
42.0000 44.0595
42.0500 31.3983
42.1000 43.4125
42.1500 28.9685
42.2000 34.6107
42.2500 43.4921
42.3000 35.9761
42.3500 30.5934
42.4000 35.0934
42.4500 35.8927
42.5000 47.1783
42.5500 51.1438
42.6000 26.5552
42.6500 35.1824
42.7000 46.3211
42.7500 32.1689
42.8000 23.0303
42.8500 33.9488
42.9000 28.3589
42.9500 32.0186
43.0000 31.3461
43.0500 42.2715
43.1000 42.0807
43.1500 33.6358
43.2000 34.5276
43.2500 42.6690
43.3000 28.4821
43.3500 33.4631
43.4000 23.2355
43.4500 41.4860
43.5000 31.5241
43.5500 43.7992
43.6000 26.4082
43.6500 38.9257
43.7000 28.9552
43.7500 44.8247
43.8000 41.6183
43.8500 37.3364
43.9000 42.3268
43.9500 38.6668
44.0000 28.3006
44.0500 40.2734
44.1000 45.0528
44.1500 45.5092
44.2000 40.7729
44.2500 62.1156
44.3000 90.3015
44.3500 86.2068
44.4000 132.8338
44.4500 388.1565
44.5000 1221.7073
44.5500 2047.1522
44.6000 2128.8118
44.6500 1038.5728
44.7000 314.4247
44.7500 112.6724
44.8000 67.4062
44.8500 55.2910
44.9000 53.5670
44.9500 34.5585
45.0000 42.4602
45.0500 39.2446
45.1000 42.5930
45.1500 35.4679
45.2000 39.2192
45.2500 28.9319
45.3000 27.1791
45.3500 40.3439
45.4000 36.0600
45.4500 35.0520
45.5000 31.6683
45.5500 42.7867
45.6000 31.6265
45.6500 31.0057
45.7000 37.0649
45.7500 31.5779
45.8000 33.1763
45.8500 33.7227
45.9000 39.2450
45.9500 34.6316
46.0000 40.7745
46.0500 31.1905
46.1000 34.1073
46.1500 30.8024
46.2000 33.3687
46.2500 35.9098
46.3000 33.6718
46.3500 35.2325
46.4000 39.2035
46.4500 28.3279
46.5000 26.9769
46.5500 30.7296
46.6000 26.7330
46.6500 38.7006
46.7000 28.8000
46.7500 35.3817
46.8000 28.3975
46.8500 34.2383
46.9000 28.6907
46.9500 33.4780
47.0000 34.6106
47.0500 39.4882
47.1000 38.9196
47.1500 31.7805
47.2000 45.2878
47.2500 22.8709
47.3000 29.4135
47.3500 43.6560
47.4000 30.1246
47.4500 21.8887
47.5000 31.2862
47.5500 30.4005
47.6000 36.2561
47.6500 34.2039
47.7000 43.0799
47.7500 27.5883
47.8000 34.8738
47.8500 24.2293
47.9000 32.6708
47.9500 39.6348
48.0000 30.9969
48.0500 32.9948
48.1000 34.1700
48.1500 30.1831
48.2000 43.8083
48.2500 23.1212
48.3000 43.0392
48.3500 35.6703
48.4000 35.1031
48.4500 34.6821
48.5000 35.5354
48.5500 37.9791
48.6000 34.8178
48.6500 35.5609
48.7000 43.5553
48.7500 36.0446
48.8000 24.4959
48.8500 40.6029
48.9000 31.1297
48.9500 29.3945
49.0000 31.6467
49.0500 31.2944
49.1000 40.9809
49.1500 40.4277
49.2000 40.8869
49.2500 32.5545
49.3000 37.3047
49.3500 27.8866
49.4000 26.9594
49.4500 34.2276
49.5000 22.9708
49.5500 35.9974
49.6000 39.6962
49.6500 34.1383
49.7000 40.6611
49.7500 34.0503
49.8000 41.7306
49.8500 38.4141
49.9000 37.2007
49.9500 39.7824
50.0000 37.4719
50.0500 32.3429
50.1000 32.2046
50.1500 27.8737
50.2000 27.4769
50.2500 24.6144
50.3000 29.5989
50.3500 34.7391
50.4000 38.1540
50.4500 25.3819
50.5000 29.1610
50.5500 21.7673
50.6000 26.7856
50.6500 35.8377
50.7000 34.3120
50.7500 37.0340
50.8000 25.8528
50.8500 26.4516
50.9000 26.6676
50.9500 35.5244
51.0000 32.4467
51.0500 33.6119
51.1000 33.6954
51.1500 35.3563
51.2000 37.2714
51.2500 35.3970
51.3000 28.8227
51.3500 25.9283
51.4000 32.0738
51.4500 19.9206
51.5000 28.4890
51.5500 31.6386
51.6000 33.0086
51.6500 31.7539
51.7000 35.1684
51.7500 33.7806
51.8000 30.5657
51.8500 31.0596
51.9000 27.1714
51.9500 27.3948
52.0000 26.1106
52.0500 32.4600
52.1000 39.4973
52.1500 30.6830
52.2000 22.5767
52.2500 36.2706
52.3000 21.7382
52.3500 20.9048
52.4000 21.4717
52.4500 43.1407
52.5000 33.8487
52.5500 24.9320
52.6000 35.1448
52.6500 23.0995
52.7000 26.9036
52.7500 26.9403
52.8000 34.0156
52.8500 43.6577
52.9000 37.3954
52.9500 34.7875
53.0000 42.7785
53.0500 26.4611
53.1000 24.3747
53.1500 26.5557
53.2000 35.6002
53.2500 33.0768
53.3000 43.0270
53.3500 29.0047
53.4000 23.1312
53.4500 30.3967
53.5000 35.0906
53.5500 34.4325
53.6000 30.3316
53.6500 31.5984
53.7000 39.9395
53.7500 23.8201
53.8000 25.3500
53.8500 33.1258
53.9000 29.8932
53.9500 36.5518
54.0000 35.8119
54.0500 17.3188
54.1000 36.8444
54.1500 43.1527
54.2000 31.3718
54.2500 25.2611
54.3000 25.2066
54.3500 21.3410
54.4000 38.7524
54.4500 33.3383
54.5000 27.9764
54.5500 22.7129
54.6000 28.2528
54.6500 33.4566
54.7000 38.5722
54.7500 31.9218
54.8000 27.2066
54.8500 19.9970
54.9000 27.0571
54.9500 24.4139
55.0000 34.4663
55.0500 25.7550
55.1000 27.0480
55.1500 27.4988
55.2000 29.5028
55.2500 30.6418
55.3000 30.4462
55.3500 26.2053
55.4000 37.9142
55.4500 31.6893
55.5000 31.8722
55.5500 35.4997
55.6000 32.2450
55.6500 30.7244
55.7000 34.9404
55.7500 29.2784
55.8000 38.4364
55.8500 32.6818
55.9000 27.3658
55.9500 35.9463
56.0000 27.1636
56.0500 31.6079
56.1000 25.5732
56.1500 26.8559
56.2000 28.7111
56.2500 30.4102
56.3000 25.6945
56.3500 46.0554
56.4000 21.5673
56.4500 29.2658
56.5000 38.7647
56.5500 34.3973
56.6000 36.1798
56.6500 29.7210
56.7000 43.5931
56.7500 42.5369
56.8000 36.0205
56.8500 31.7020
56.9000 45.3606
56.9500 38.7644
57.0000 29.3356
57.0500 28.3233
57.1000 32.4044
57.1500 25.0914
57.2000 30.8465
57.2500 29.3317
57.3000 34.1869
57.3500 25.8735
57.4000 28.6907
57.4500 23.7205
57.5000 22.1375
57.5500 25.2014
57.6000 38.8987
57.6500 34.1924
57.7000 30.1855
57.7500 32.3538
57.8000 25.8793
57.8500 24.9716
57.9000 29.0070
57.9500 35.3117
58.0000 24.9939
58.0500 35.1236
58.1000 40.4648
58.1500 20.5547
58.2000 29.9051
58.2500 27.7473
58.3000 30.3629
58.3500 26.9001
58.4000 26.8081
58.4500 29.6876
58.5000 37.2998
58.5500 39.7795
58.6000 33.3192
58.6500 23.7113
58.7000 37.4600
58.7500 23.2162
58.8000 33.4817
58.8500 19.9588
58.9000 27.9990
58.9500 25.7570
59.0000 35.5659
59.0500 29.5895
59.1000 31.2974
59.1500 28.1202
59.2000 37.1628
59.2500 30.0030
59.3000 32.3963
59.3500 29.1489
59.4000 33.2066
59.4500 34.0707
59.5000 29.4898
59.5500 28.5683
59.6000 24.1645
59.6500 25.1939
59.7000 32.9227
59.7500 40.3681
59.8000 34.4669
59.8500 25.1585
59.9000 27.9031
59.9500 38.2508
60.0000 30.9981
60.0500 34.4581
60.1000 25.5974
60.1500 24.4541
60.2000 30.0892
60.2500 31.7191
60.3000 33.5255
60.3500 29.3524
60.4000 36.1410
60.4500 34.1209
60.5000 34.0724
60.5500 26.6117
60.6000 24.4015
60.6500 25.6752
60.7000 23.5943
60.7500 37.4010
60.8000 33.5989
60.8500 31.5647
60.9000 31.3644
60.9500 17.3473
61.0000 24.0161
61.0500 41.4025
61.1000 38.1085
61.1500 34.5906
61.2000 34.9258
61.2500 24.2594
61.3000 26.5075
61.3500 23.1835
61.4000 30.3417
61.4500 24.8126
61.5000 30.6241
61.5500 26.8249
61.6000 30.8481
61.6500 34.5011
61.7000 33.1219
61.7500 32.1926
61.8000 20.3333
61.8500 30.1637
61.9000 35.8625
61.9500 28.2334
62.0000 25.9097
62.0500 21.2511
62.1000 33.8374
62.1500 32.8678
62.2000 27.8103
62.2500 37.7037
62.3000 32.8878
62.3500 33.1621
62.4000 24.6608
62.4500 35.4724
62.5000 27.0785
62.5500 28.6063
62.6000 29.1383
62.6500 27.0890
62.7000 30.7648
62.7500 26.3654
62.8000 29.5540
62.8500 19.1871
62.9000 41.1347
62.9500 31.1773
63.0000 32.7736
63.0500 31.1480
63.1000 23.2743
63.1500 29.7061
63.2000 21.3890
63.2500 24.0445
63.3000 31.3655
63.3500 34.4312
63.4000 34.8995
63.4500 28.9771
63.5000 29.0094
63.5500 30.3079
63.6000 28.9654
63.6500 29.6827
63.7000 39.2041
63.7500 25.1204
63.8000 31.6075
63.8500 21.3968
63.9000 26.3006
63.9500 27.2398
64.0000 37.4973
64.0500 18.9878
64.1000 27.3560
64.1500 29.9449
64.2000 32.8813
64.2500 30.4024
64.3000 30.4355
64.3500 41.4350
64.4000 31.6890
64.4500 31.3191
64.5000 38.5573
64.5500 34.1538
64.6000 57.5070
64.6500 56.0474
64.7000 77.1734
64.7500 93.3635
64.8000 130.9983
64.8500 140.5421
64.9000 138.2006
64.9500 84.5440
65.0000 86.4943
65.0500 49.9816
65.1000 45.4336
65.1500 30.6321
65.2000 33.2327
65.2500 34.8144
65.3000 25.8864
65.3500 34.5619
65.4000 34.5678
65.4500 34.5717
65.5000 42.9745
65.5500 43.2153
65.6000 30.9177
65.6500 30.5861
65.7000 30.9474
65.7500 34.0415
65.8000 31.2791
65.8500 26.4080
65.9000 32.5767
65.9500 31.6389
66.0000 34.0363
66.0500 30.1529
66.1000 23.5213
66.1500 26.6193
66.2000 33.5589
66.2500 37.0723
66.3000 30.1206
66.3500 26.6650
66.4000 35.1180
66.4500 29.5260
66.5000 29.6647
66.5500 22.6774
66.6000 32.3018
66.6500 25.5633
66.7000 26.7560
66.7500 33.5586
66.8000 24.9422
66.8500 23.1294
66.9000 19.4453
66.9500 33.3654
67.0000 22.2437
67.0500 17.5329
67.1000 26.7320
67.1500 39.3365
67.2000 24.3805
67.2500 34.5962
67.3000 43.4606
67.3500 31.4021
67.4000 37.7339
67.4500 36.5406
67.5000 27.1750
67.5500 27.5913
67.6000 37.1591
67.6500 33.6231
67.7000 33.0331
67.7500 28.4957
67.8000 31.5601
67.8500 27.9058
67.9000 26.0222
67.9500 21.0982
68.0000 29.2828
68.0500 20.9556
68.1000 29.4992
68.1500 26.9162
68.2000 28.9512
68.2500 39.1714
68.3000 37.5046
68.3500 25.7077
68.4000 38.8754
68.4500 32.4066
68.5000 41.3952
68.5500 31.3949
68.6000 34.9145
68.6500 30.6778
68.7000 27.3342
68.7500 34.3400
68.8000 31.0936
68.8500 22.7808
68.9000 23.7780
68.9500 27.1934
69.0000 40.1503
69.0500 39.2177
69.1000 29.2149
69.1500 19.8343
69.2000 22.3496
69.2500 29.3671
69.3000 33.5951
69.3500 34.7911
69.4000 34.4323
69.4500 32.2934
69.5000 22.0362
69.5500 39.0088
69.6000 34.9458
69.6500 36.4179
69.7000 31.7920
69.7500 25.4120
69.8000 26.3511
69.8500 34.9698
69.9000 34.4616
69.9500 33.5315
70.0000 23.7656
70.0500 37.1546
70.1000 28.4014
70.1500 27.0862
70.2000 32.5499
70.2500 30.0771
70.3000 27.8764
70.3500 28.3765
70.4000 25.9228
70.4500 30.1307
70.5000 26.4985
70.5500 26.5220
70.6000 29.8555
70.6500 26.4111
70.7000 34.4922
70.7500 33.4925
70.8000 25.8902
70.8500 26.6116
70.9000 20.3063
70.9500 26.8388
71.0000 26.5893
71.0500 30.1253
71.1000 36.6164
71.1500 38.6140
71.2000 24.3532
71.2500 26.4842
71.3000 29.4910
71.3500 24.5377
71.4000 25.2413
71.4500 23.6242
71.5000 25.9276
71.5500 29.5500
71.6000 31.8424
71.6500 36.8671
71.7000 30.4799
71.7500 34.8286
71.8000 33.8504
71.8500 30.2497
71.9000 18.3247
71.9500 25.1451
72.0000 24.5693
72.0500 33.7637
72.1000 34.9124
72.1500 27.5239
72.2000 32.8609
72.2500 20.0960
72.3000 28.0578
72.3500 22.1340
72.4000 30.7525
72.4500 30.5466
72.5000 29.9378
72.5500 28.6909
72.6000 28.0295
72.6500 31.8984
72.7000 35.1522
72.7500 33.9270
72.8000 35.2966
72.8500 32.7950
72.9000 37.1849
72.9500 28.2584
73.0000 32.1942
73.0500 31.6882
73.1000 26.6807
73.1500 34.0966
73.2000 32.6408
73.2500 37.3697
73.3000 28.5436
73.3500 31.5039
73.4000 25.3075
73.4500 29.7824
73.5000 37.4717
73.5500 32.8707
73.6000 25.8975
73.6500 32.2801
73.7000 30.7590
73.7500 32.9912
73.8000 39.1482
73.8500 31.4760
73.9000 27.9186
73.9500 27.5089
74.0000 22.1700
74.0500 25.4810
74.1000 23.8764
74.1500 26.0438
74.2000 31.8640
74.2500 29.7933
74.3000 30.1179
74.3500 30.5336
74.4000 27.8262
74.4500 24.9988
74.5000 34.8327
74.5500 36.6574
74.6000 24.4083
74.6500 42.3221
74.7000 31.8629
74.7500 26.5337
74.8000 17.6964
74.8500 33.1714
74.9000 29.4827
74.9500 33.0591
75.0000 25.7492
75.0500 23.2727
75.1000 39.5966
75.1500 28.7815
75.2000 38.6127
75.2500 27.6489
75.3000 21.2795
75.3500 29.3067
75.4000 30.4609
75.4500 25.3159
75.5000 36.3741
75.5500 36.9649
75.6000 29.0073
75.6500 23.0896
75.7000 24.1046
75.7500 24.9946
75.8000 33.8562
75.8500 34.5579
75.9000 38.3091
75.9500 29.3390
76.0000 29.7583
76.0500 26.4374
76.1000 29.8073
76.1500 35.0937
76.2000 33.1754
76.2500 23.6934
76.3000 27.7044
76.3500 35.1919
76.4000 31.2959
76.4500 25.7723
76.5000 24.4918
76.5500 28.2011
76.6000 33.6364
76.6500 35.0458
76.7000 27.5208
76.7500 25.8209
76.8000 33.9092
76.8500 22.8391
76.9000 22.2033
76.9500 23.7185
77.0000 23.6096
77.0500 21.1062
77.1000 27.5137
77.1500 29.1277
77.2000 33.6644
77.2500 24.4314
77.3000 25.8579
77.3500 29.1229
77.4000 26.1967
77.4500 29.6874
77.5000 33.5148
77.5500 28.4131
77.6000 23.0613
77.6500 16.7403
77.7000 26.6324
77.7500 39.1682
77.8000 27.5500
77.8500 29.5726
77.9000 29.2624
77.9500 28.2840
78.0000 29.6901
78.0500 30.7493
78.1000 32.4340
78.1500 25.7791
78.2000 28.4670
78.2500 24.0621
78.3000 24.5743
78.3500 30.9411
78.4000 28.4336
78.4500 24.7524
78.5000 31.5448
78.5500 31.1450
78.6000 28.9138
78.6500 28.9656
78.7000 31.5003
78.7500 23.2805
78.8000 33.9930
78.8500 34.2957
78.9000 38.6198
78.9500 23.0598
79.0000 32.5388
79.0500 29.9064
79.1000 19.7132
79.1500 25.6103
79.2000 24.8480
79.2500 28.6356
79.3000 30.7340
79.3500 32.7675
79.4000 37.1285
79.4500 29.5370
79.5000 25.0901
79.5500 39.2385
79.6000 31.0931
79.6500 28.4564
79.7000 29.9053
79.7500 32.2078
79.8000 23.7629
79.8500 31.4927
79.9000 25.6387
79.9500 40.5422
80.0000 26.8413
80.0500 22.7455
80.1000 30.4129
80.1500 24.9388
80.2000 24.3861
80.2500 22.9927
80.3000 30.7887
80.3500 26.4898
80.4000 38.7109
80.4500 21.4535
80.5000 27.0335
80.5500 39.3368
80.6000 41.1676
80.6500 29.0845
80.7000 24.3848
80.7500 25.1725
80.8000 23.3962
80.8500 36.6726
80.9000 32.4584
80.9500 34.4270
81.0000 28.8769
81.0500 27.0823
81.1000 26.4852
81.1500 25.5895
81.2000 31.7581
81.2500 24.8356
81.3000 31.0266
81.3500 27.4640
81.4000 38.2997
81.4500 35.3726
81.5000 21.0823
81.5500 28.4724
81.6000 36.0237
81.6500 30.0884
81.7000 30.1811
81.7500 35.0079
81.8000 41.5676
81.8500 31.5584
81.9000 59.1588
81.9500 80.9349
82.0000 125.7531
82.0500 201.3371
82.1000 272.9218
82.1500 290.0101
82.2000 228.4934
82.2500 115.9009
82.3000 81.8352
82.3500 56.6358
82.4000 42.0618
82.4500 37.1060
82.5000 32.2949
82.5500 36.3754
82.6000 42.1452
82.6500 28.3212
82.7000 34.9018
82.7500 32.8197
82.8000 22.8048
82.8500 33.4620
82.9000 23.3978
82.9500 33.4151
83.0000 27.9084
83.0500 23.8893
83.1000 27.1283
83.1500 37.0245
83.2000 31.3796
83.2500 38.3221
83.3000 27.8523
83.3500 21.5503
83.4000 22.7304
83.4500 36.6339
83.5000 30.6654
83.5500 27.6160
83.6000 24.9472
83.6500 29.1409
83.7000 26.4912
83.7500 31.2018
83.8000 20.3905
83.8500 25.9495
83.9000 35.5264
83.9500 26.0225
84.0000 31.9261
84.0500 28.9783
84.1000 28.1164
84.1500 37.4911
84.2000 27.9047
84.2500 35.8338
84.3000 27.5280
84.3500 35.6899
84.4000 26.0067
84.4500 26.8285
84.5000 36.6573
84.5500 31.5955
84.6000 36.4477
84.6500 18.9257
84.7000 39.1499
84.7500 22.9137
84.8000 39.3489
84.8500 33.0331
84.9000 25.8977
84.9500 18.9295
85.0000 29.2277
85.0500 27.9025
85.1000 25.8667
85.1500 33.0877
85.2000 29.4460
85.2500 29.6791
85.3000 21.3994
85.3500 26.6558
85.4000 30.8983
85.4500 21.8030
85.5000 27.2952
85.5500 31.3216
85.6000 37.3377
85.6500 29.6665
85.7000 31.5125
85.7500 23.1331
85.8000 35.1836
85.8500 32.0507
85.9000 33.9229
85.9500 27.6168
86.0000 30.1984
86.0500 38.6335
86.1000 29.0438
86.1500 38.3576
86.2000 27.3519
86.2500 21.3121
86.3000 27.2174
86.3500 28.9234
86.4000 22.8950
86.4500 28.8922
86.5000 22.8800
86.5500 34.8545
86.6000 39.2595
86.6500 23.9044
86.7000 29.6679
86.7500 41.6438
86.8000 33.3404
86.8500 27.8867
86.9000 32.1615
86.9500 32.8499
87.0000 22.8166
87.0500 28.6601
87.1000 24.6814
87.1500 26.6025
87.2000 32.6764
87.2500 29.9711
87.3000 30.0376
87.3500 32.8310
87.4000 30.1787
87.4500 32.5293
87.5000 28.9088
87.5500 25.0660
87.6000 28.1342
87.6500 34.3306
87.7000 32.6755
87.7500 28.2063
87.8000 28.2439
87.8500 33.4079
87.9000 25.1257
87.9500 33.7044
88.0000 38.4745
88.0500 28.8775
88.1000 32.5916
88.1500 23.9138
88.2000 29.2334
88.2500 30.7421
88.3000 16.9411
88.3500 39.8475
88.4000 29.0364
88.4500 32.2394
88.5000 35.0021
88.5500 21.6807
88.6000 32.9028
88.6500 21.6855
88.7000 35.5216
88.7500 27.2261
88.8000 28.9834
88.8500 40.9778
88.9000 28.2339
88.9500 27.1072
89.0000 29.1042
89.0500 27.4345
89.1000 30.3772
89.1500 30.9529
89.2000 26.1232
89.2500 29.8692
89.3000 31.7141
89.3500 32.3612
89.4000 39.5375
89.4500 29.6782
89.5000 25.0268
89.5500 26.2260
89.6000 38.1630
89.6500 34.2386
89.7000 30.3437
89.7500 30.2211
89.8000 21.6144
89.8500 26.0658
89.9000 29.6976
89.9500 31.9983
90.0000 25.1133
90.0500 39.3035
90.1000 33.1481
90.1500 33.3480
90.2000 18.1046
90.2500 23.0433
90.3000 26.3932
90.3500 30.5716
90.4000 25.2718
90.4500 34.2709
90.5000 24.3000
90.5500 32.6726
90.6000 31.0285
90.6500 30.6299
90.7000 28.2824
90.7500 41.6055
90.8000 33.2273
90.8500 26.5924
90.9000 42.1154
90.9500 27.1850
91.0000 19.8277
91.0500 27.5497
91.1000 32.4000
91.1500 32.2343
91.2000 35.6505
91.2500 39.8455
91.3000 25.3055
91.3500 25.8826
91.4000 35.4364
91.4500 30.8476
91.5000 30.2833
91.5500 20.6298
91.6000 29.1618
91.6500 29.4809
91.7000 31.2338
91.7500 28.3833
91.8000 27.0281
91.8500 20.3496
91.9000 27.5430
91.9500 27.2605
92.0000 30.6869
92.0500 35.6652
92.1000 29.0379
92.1500 23.6908
92.2000 28.3805
92.2500 29.0360
92.3000 35.5916
92.3500 28.7520
92.4000 28.6815
92.4500 27.9669
92.5000 36.0393
92.5500 24.8486
92.6000 32.0705
92.6500 23.6030
92.7000 28.9185
92.7500 28.4998
92.8000 23.3513
92.8500 29.5013
92.9000 30.1001
92.9500 35.0862
93.0000 27.1896
93.0500 35.2035
93.1000 30.6276
93.1500 36.7706
93.2000 28.5533
93.2500 28.0802
93.3000 35.1962
93.3500 30.5692
93.4000 31.7742
93.4500 31.4674
93.5000 29.2062
93.5500 24.8247
93.6000 26.4289
93.6500 23.3329
93.7000 26.1126
93.7500 21.7254
93.8000 26.4467
93.8500 29.1616
93.9000 18.6514
93.9500 22.1553
94.0000 22.2347
94.0500 31.9536
94.1000 33.7966
94.1500 32.6424
94.2000 10.7776
94.2500 23.3241
94.3000 29.0883
94.3500 24.5275
94.4000 31.7447
94.4500 30.2444
94.5000 20.8884
94.5500 31.2994
94.6000 27.9483
94.6500 26.7439
94.7000 20.1682
94.7500 36.5514
94.8000 28.6150
94.8500 34.9120
94.9000 35.6500
94.9500 31.3487
95.0000 33.0840
95.0500 26.1786
95.1000 26.9811
95.1500 37.5457
95.2000 15.2935
95.2500 27.0564
95.3000 22.3637
95.3500 27.3966
95.4000 26.7912
95.4500 35.4195
95.5000 31.0490
95.5500 31.3759
95.6000 42.2209
95.6500 26.9932
95.7000 33.8053
95.7500 31.1653
95.8000 34.0004
95.8500 27.2408
95.9000 27.1328
95.9500 22.8034
96.0000 29.9986
96.0500 27.5256
96.1000 36.0953
96.1500 27.8521
96.2000 40.1110
96.2500 36.6665
96.3000 26.6931
96.3500 33.6237
96.4000 25.7229
96.4500 33.9574
96.5000 39.4341
96.5500 23.4920
96.6000 28.0522
96.6500 23.5119
96.7000 24.5518
96.7500 35.0106
96.8000 25.5393
96.8500 26.2309
96.9000 30.1479
96.9500 24.8242
97.0000 27.2800
97.0500 36.8215
97.1000 33.4790
97.1500 29.3382
97.2000 23.9933
97.2500 23.8954
97.3000 20.8169
97.3500 28.3133
97.4000 30.7852
97.4500 33.7100
97.5000 40.3987
97.5500 29.2908
97.6000 30.0829
97.6500 33.8858
97.7000 31.9837
97.7500 31.3083
97.8000 33.0290
97.8500 28.0556
97.9000 26.6641
97.9500 31.5085
98.0000 26.0596
98.0500 33.0411
98.1000 31.3709
98.1500 26.9546
98.2000 21.0466
98.2500 31.1284
98.3000 39.8646
98.3500 27.6265
98.4000 42.5923
98.4500 63.1325
