#Collected Data-20
#Intensity_unit=counts
#Attenuator_coefficient=1.000000
40.0000 0.0000
40.0100 0.0000
40.0200 0.0000
40.0300 0.0000
40.0400 0.9330
40.0500 0.0759
40.0600 0.0000
40.0700 0.0000
40.0800 0.0000
40.0900 0.0000
40.1000 0.4870
40.1100 0.5046
40.1200 1.0093
40.1300 0.0000
40.1400 0.0000
40.1500 0.0000
40.1600 0.0000
40.1700 0.1458
40.1800 0.8140
40.1900 0.0000
40.2000 0.0000
40.2100 0.0000
40.2200 0.0000
40.2300 0.0000
40.2400 0.0000
40.2500 0.0000
40.2600 0.0000
40.2700 0.0000
40.2800 0.0000
40.2900 0.0000
40.3000 0.0000
40.3100 0.0000
40.3200 0.0000
40.3300 0.0000
40.3400 0.0000
40.3500 0.8965
40.3600 0.1570
40.3700 3.0011
40.3800 1.0135
40.3900 0.9772
40.4000 0.3221
40.4100 1.6144
40.4200 1.0709
40.4300 1.0382
40.4400 0.0000
40.4500 0.9853
40.4600 0.8442
40.4700 0.1051
40.4800 0.0000
40.4900 0.9854
40.5000 0.2873
40.5100 0.7891
40.5200 0.0000
40.5300 1.0200
40.5400 1.0202
40.5500 0.0000
40.5600 0.0000
40.5700 0.0000
40.5800 0.0000
40.5900 0.0000
40.6000 0.0000
40.6100 0.9481
40.6200 2.3822
40.6300 0.6402
40.6400 0.9867
40.6500 0.0000
40.6600 1.7612
40.6700 0.2249
40.6800 0.0000
40.6900 0.0000
40.7000 0.0000
40.7100 0.0000
40.7200 0.0000
40.7300 0.0000
40.7400 0.0000
40.7500 0.0000
40.7600 0.0000
40.7700 0.0000
40.7800 0.0000
40.7900 0.9700
40.8000 0.0000
40.8100 0.0000
40.8200 0.0000
40.8300 0.0000
40.8400 0.0000
40.8500 0.0000
40.8600 1.0124
40.8700 0.9575
40.8800 0.0000
40.8900 0.0000
40.9000 0.0000
40.9100 0.0000
40.9200 0.0000
40.9300 0.0000
40.9400 0.0000
40.9500 0.0000
40.9600 0.0000
40.9700 0.0000
40.9800 0.0000
40.9900 0.0000
41.0000 0.0000
41.0100 0.0000
41.0200 0.0000
41.0300 0.0000
41.0400 0.3601
41.0500 0.6285
41.0600 0.0000
41.0700 0.0000
41.0800 0.0000
41.0900 0.0000
41.1000 0.9161
41.1100 0.0683
41.1200 0.1208
41.1300 1.1101
41.1400 1.8081
41.1500 1.0402
41.1600 0.0000
41.1700 0.5711
41.1800 0.3947
41.1900 0.9758
41.2000 0.8671
41.2100 0.1244
41.2200 0.0000
41.2300 0.0000
41.2400 0.0000
41.2500 0.0000
41.2600 0.0000
41.2700 0.0000
41.2800 1.9522
41.2900 0.0000
41.3000 0.0000
41.3100 0.0000
41.3200 0.0000
41.3300 0.0000
41.3400 0.1914
41.3500 0.7848
41.3600 0.0000
41.3700 0.0000
41.3800 0.0000
41.3900 0.9457
41.4000 0.0000
41.4100 0.0000
41.4200 0.0000
41.4300 0.0000
41.4400 0.0000
41.4500 0.0000
41.4600 0.3244
41.4700 1.6695
41.4800 0.0000
41.4900 1.0304
41.5000 0.0000
41.5100 0.7704
41.5200 0.1917
41.5300 1.9376
41.5400 0.0102
41.5500 0.0000
41.5600 0.2619
41.5700 0.6984
41.5800 0.4628
41.5900 2.1337
41.6000 1.1306
41.6100 0.3514
41.6200 0.0000
41.6300 0.3282
41.6400 1.0031
41.6500 0.6382
41.6600 0.0000
41.6700 0.0000
41.6800 0.0000
41.6900 0.0000
41.7000 0.0000
41.7100 1.1712
41.7200 0.9615
41.7300 0.0000
41.7400 0.0000
41.7500 1.0306
41.7600 0.0000
41.7700 0.0000
41.7800 0.0000
41.7900 1.3099
41.8000 3.3101
41.8100 0.4625
41.8200 1.9470
41.8300 0.0000
41.8400 0.0000
41.8500 0.0101
41.8600 1.9888
41.8700 0.1943
41.8800 0.7822
41.8900 0.3801
41.9000 0.6003
41.9100 0.0000
41.9200 0.0000
41.9300 0.0000
41.9400 0.0000
41.9500 0.0000
41.9600 0.0484
41.9700 2.0913
41.9800 0.9250
41.9900 0.0000
42.0000 0.0000
42.0100 0.9779
42.0200 0.0000
42.0300 0.0000
42.0400 0.0000
42.0500 0.0000
42.0600 0.0000
42.0700 0.9646
42.0800 0.1788
42.0900 0.8077
42.1000 0.0000
42.1100 0.4811
42.1200 1.6255
42.1300 0.0000
42.1400 0.0000
42.1500 0.9894
42.1600 0.0000
42.1700 0.0000
42.1800 0.0000
42.1900 0.0000
42.2000 0.3117
42.2100 0.6812
42.2200 0.4852
42.2300 1.0770
42.2400 1.1149
42.2500 0.3176
42.2600 0.0000
42.2700 0.0000
42.2800 0.0000
42.2900 0.0000
42.3000 0.0000
42.3100 0.0000
42.3200 0.0000
42.3300 0.0000
42.3400 0.6493
42.3500 1.8625
42.3600 0.5515
42.3700 0.0000
42.3800 0.0000
42.3900 0.0000
42.4000 0.0000
42.4100 0.0000
42.4200 0.0000
42.4300 0.0000
42.4400 0.0000
42.4500 0.0000
42.4600 1.0347
42.4700 0.0000
42.4800 0.0000
42.4900 0.0000
42.5000 0.0000
42.5100 0.0000
42.5200 0.0000
42.5300 0.0000
42.5400 0.0000
42.5500 0.0000
42.5600 0.0000
42.5700 0.0000
42.5800 0.0000
42.5900 0.0000
42.6000 0.0000
42.6100 0.0000
42.6200 0.9646
42.6300 0.0000
42.6400 0.0000
42.6500 1.0089
42.6600 1.9929
42.6700 0.0000
42.6800 0.0000
42.6900 0.0000
42.7000 0.0000
42.7100 0.0000
42.7200 0.0000
42.7300 0.0000
42.7400 0.0000
42.7500 1.0395
42.7600 1.0258
42.7700 0.0000
42.7800 0.0000
42.7900 0.9150
42.8000 0.1210
42.8100 0.9520
42.8200 0.0000
42.8300 0.0000
42.8400 0.0000
42.8500 0.0000
42.8600 0.0000
42.8700 0.0000
42.8800 0.0000
42.8900 0.0000
42.9000 0.0000
42.9100 0.0000
42.9200 0.0000
42.9300 0.0000
42.9400 0.0000
42.9500 0.0000
42.9600 0.0000
42.9700 0.0000
42.9800 0.0000
42.9900 0.0000
43.0000 0.8372
43.0100 0.1301
43.0200 1.0026
43.0300 0.9092
43.0400 0.9526
43.0500 0.0000
43.0600 0.9717
43.0700 0.0000
43.0800 1.0364
43.0900 0.0000
43.1000 0.0000
43.1100 0.9045
43.1200 0.0962
43.1300 0.0000
43.1400 0.0000
43.1500 0.0000
43.1600 0.0000
43.1700 1.0041
43.1800 1.1313
43.1900 1.6703
43.2000 1.0779
43.2100 0.2388
43.2200 0.0000
43.2300 3.1146
43.2400 0.0000
43.2500 0.0000
43.2600 0.0000
43.2700 0.0000
43.2800 0.0000
43.2900 0.6025
43.3000 1.1118
43.3100 0.3103
43.3200 0.0000
43.3300 0.9785
43.3400 1.0143
43.3500 0.0000
43.3600 0.0000
43.3700 0.0000
43.3800 0.0000
43.3900 0.5313
43.4000 0.4402
43.4100 0.0000
43.4200 0.0000
43.4300 0.0000
43.4400 0.0000
43.4500 0.0000
43.4600 0.0000
43.4700 0.9751
43.4800 0.0000
43.4900 0.0000
43.5000 0.0000
43.5100 0.0000
43.5200 0.0000
43.5300 0.0000
43.5400 0.0000
43.5500 0.0000
43.5600 0.0000
43.5700 0.9580
43.5800 0.3411
43.5900 0.6611
43.6000 0.5553
43.6100 0.4941
43.6200 0.0000
43.6300 0.0000
43.6400 0.0000
43.6500 0.0000
43.6600 0.0000
43.6700 0.0000
43.6800 0.0000
43.6900 0.0000
43.7000 0.9771
43.7100 0.0000
43.7200 0.7441
43.7300 0.0000
43.7400 0.0000
43.7500 0.0000
43.7600 0.0000
43.7700 0.9950
43.7800 0.0000
43.7900 0.0000
43.8000 0.0000
43.8100 0.4883
43.8200 0.4665
43.8300 0.6900
43.8400 2.1820
43.8500 0.2042
43.8600 0.0000
43.8700 0.0000
43.8800 0.0000
43.8900 0.0000
43.9000 0.0000
43.9100 0.0000
43.9200 0.5215
43.9300 0.4270
43.9400 0.0000
43.9500 0.0000
43.9600 0.0000
43.9700 0.0000
43.9800 0.0000
43.9900 0.0000
44.0000 0.0000
44.0100 0.0000
44.0200 0.0000
44.0300 1.0402
44.0400 0.0000
44.0500 0.0000
44.0600 0.0000
44.0700 0.0000
44.0800 0.0000
44.0900 0.0000
44.1000 1.0125
44.1100 0.0000
44.1200 0.0000
44.1300 0.9682
44.1400 0.0000
44.1500 0.0000
44.1600 0.0000
44.1700 0.0000
44.1800 0.0000
44.1900 1.0043
44.2000 0.0000
44.2100 0.0000
44.2200 0.0000
44.2300 0.0000
44.2400 0.0000
44.2500 0.0000
44.2600 0.0000
44.2700 0.9391
44.2800 0.0000
44.2900 0.0000
44.3000 0.0000
44.3100 0.0000
44.3200 0.0000
44.3300 0.0000
44.3400 0.0000
44.3500 0.0000
44.3600 0.7453
44.3700 0.3147
44.3800 1.7922
44.3900 1.1329
44.4000 0.0000
44.4100 0.0000
44.4200 0.0000
44.4300 0.0000
44.4400 0.0000
44.4500 0.0000
44.4600 0.0000
44.4700 0.0000
44.4800 0.0000
44.4900 0.0000
44.5000 0.0000
44.5100 0.0000
44.5200 0.0000
44.5300 0.0000
44.5400 0.0000
44.5500 2.0256
44.5600 0.0000
44.5700 0.9999
44.5800 0.0000
44.5900 1.1198
44.6000 0.0000
44.6100 2.0724
44.6200 0.3143
44.6300 1.6825
44.6400 0.0000
44.6500 0.0000
44.6600 0.0000
44.6700 0.0000
44.6800 0.0000
44.6900 0.0000
44.7000 0.0000
44.7100 0.0000
44.7200 0.1003
44.7300 0.8893
44.7400 0.0000
44.7500 0.0000
44.7600 0.0000
44.7700 0.0000
44.7800 0.6511
44.7900 0.3240
44.8000 0.0000
44.8100 0.0000
44.8200 0.0000
44.8300 0.0000
44.8400 0.0000
44.8500 0.0000
44.8600 0.0000
44.8700 0.5512
44.8800 0.5144
44.8900 0.0000
44.9000 0.0000
44.9100 0.0000
44.9200 0.9873
44.9300 0.0000
44.9400 0.0000
44.9500 0.0000
44.9600 0.0000
44.9700 0.0000
44.9800 0.0000
44.9900 0.0000
45.0000 1.0202
45.0100 0.8055
45.0200 0.1548
45.0300 0.9880
45.0400 0.0000
45.0500 0.0000
45.0600 0.0000
45.0700 0.0000
45.0800 0.0000
45.0900 0.0000
45.1000 0.6635
45.1100 0.3005
45.1200 0.0000
45.1300 0.0000
45.1400 0.0000
45.1500 0.1479
45.1600 0.7747
45.1700 0.0000
45.1800 0.0000
45.1900 0.0000
45.2000 0.0000
45.2100 0.0000
45.2200 0.0000
45.2300 0.0000
45.2400 0.9646
45.2500 0.0000
45.2600 0.0000
45.2700 0.0000
45.2800 0.0000
45.2900 0.0000
45.3000 0.9968
45.3100 0.0000
45.3200 0.0000
45.3300 0.0000
45.3400 1.0110
45.3500 1.0753
45.3600 0.0000
45.3700 0.0000
45.3800 0.0000
45.3900 0.4311
45.4000 0.5815
45.4100 0.0000
45.4200 0.0000
45.4300 1.0714
45.4400 0.0000
45.4500 0.0000
45.4600 0.0000
45.4700 0.0000
45.4800 0.0000
45.4900 0.0000
45.5000 1.0922
45.5100 0.0000
45.5200 1.0344
45.5300 0.0000
45.5400 0.0000
45.5500 0.0000
45.5600 0.0000
45.5700 0.0000
45.5800 0.0000
45.5900 0.0000
45.6000 0.0000
45.6100 0.0000
45.6200 0.0000
45.6300 0.0000
45.6400 0.0000
45.6500 0.0000
45.6600 1.0252
45.6700 0.9879
45.6800 0.0000
45.6900 0.0000
45.7000 0.0000
45.7100 0.0000
45.7200 0.0000
45.7300 0.0000
45.7400 0.0000
45.7500 0.0000
45.7600 0.0000
45.7700 1.0349
45.7800 0.0000
45.7900 1.1792
45.8000 0.7603
45.8100 0.0000
45.8200 0.0000
45.8300 0.0000
45.8400 1.0378
45.8500 0.0000
45.8600 0.0000
45.8700 0.0000
45.8800 0.0000
45.8900 0.9900
45.9000 0.0000
45.9100 0.0000
45.9200 0.0000
45.9300 0.0000
45.9400 0.0000
45.9500 0.0000
45.9600 0.0000
45.9700 0.0000
45.9800 0.0000
45.9900 0.9774
46.0000 0.0000
46.0100 0.5368
46.0200 2.3838
46.0300 0.9688
46.0400 0.0000
46.0500 0.0000
46.0600 0.0000
46.0700 0.9709
46.0800 0.0000
46.0900 0.0000
46.1000 0.0000
46.1100 0.0000
46.1200 0.0000
46.1300 0.0000
46.1400 0.0000
46.1500 0.0000
46.1600 0.7149
46.1700 0.3151
46.1800 0.0000
46.1900 1.0583
46.2000 2.0110
46.2100 0.9033
46.2200 0.5133
46.2300 1.4571
46.2400 0.0000
46.2500 0.0000
46.2600 1.2566
46.2700 0.7128
46.2800 0.0000
46.2900 0.0000
46.3000 0.0000
46.3100 0.0000
46.3200 0.0000
46.3300 0.0000
46.3400 0.0000
46.3500 1.9555
46.3600 0.0000
46.3700 0.0000
46.3800 0.0000
46.3900 0.8833
46.4000 0.1376
46.4100 0.9851
46.4200 0.4571
46.4300 2.8621
46.4400 0.7432
46.4500 0.0000
46.4600 0.0000
46.4700 0.0000
46.4800 0.0000
46.4900 0.0000
46.5000 0.0000
46.5100 0.0000
46.5200 0.0000
46.5300 0.0000
46.5400 0.0000
46.5500 0.0000
46.5600 0.0000
46.5700 0.0000
46.5800 0.0000
46.5900 0.0000
46.6000 0.0000
46.6100 0.0000
46.6200 0.0000
46.6300 0.0000
46.6400 0.0000
46.6500 0.0000
46.6600 0.0000
46.6700 0.0000
46.6800 0.0000
46.6900 0.0000
46.7000 0.0000
46.7100 0.0000
46.7200 0.0000
46.7300 0.0000
46.7400 0.0000
46.7500 0.0000
46.7600 0.0000
46.7700 0.0000
46.7800 0.0000
46.7900 0.0000
46.8000 0.0000
46.8100 0.0000
46.8200 0.0000
46.8300 0.0000
46.8400 0.0000
46.8500 0.0000
46.8600 0.0000
46.8700 0.0000
46.8800 0.0000
46.8900 0.0000
46.9000 0.0000
46.9100 0.0000
46.9200 0.0000
46.9300 0.0000
46.9400 0.0000
46.9500 0.0000
46.9600 0.0000
46.9700 0.0000
46.9800 0.0000
46.9900 0.0000
47.0000 0.6066
47.0100 0.3667
47.0200 0.0000
47.0300 0.9852
47.0400 0.0000
47.0500 0.0000
47.0600 0.0000
47.0700 0.9880
47.0800 0.0000
47.0900 0.0000
47.1000 0.0000
47.1100 0.0000
47.1200 0.0000
47.1300 0.0000
47.1400 0.0000
47.1500 0.0000
47.1600 0.0000
47.1700 0.0000
47.1800 0.0000
47.1900 0.0000
47.2000 0.0000
47.2100 0.0000
47.2200 0.0000
47.2300 0.0000
47.2400 0.0000
47.2500 0.0000
47.2600 0.0000
47.2700 0.0000
47.2800 0.0000
47.2900 0.0000
47.3000 0.0000
47.3100 0.0000
47.3200 0.0000
47.3300 0.7170
47.3400 0.2542
47.3500 0.0000
47.3600 0.0000
47.3700 0.0000
47.3800 1.0124
47.3900 0.0000
47.4000 0.0000
47.4100 0.0000
47.4200 0.9778
47.4300 0.0000
47.4400 0.0000
47.4500 0.8300
47.4600 0.1229
47.4700 0.0000
47.4800 0.0000
47.4900 0.0000
47.5000 0.0000
47.5100 0.0000
47.5200 0.0000
47.5300 0.0000
47.5400 0.7025
47.5500 0.2725
47.5600 0.9992
47.5700 0.0000
47.5800 0.0000
47.5900 0.0000
47.6000 0.0000
47.6100 0.0000
47.6200 0.0000
47.6300 0.0000
47.6400 0.0000
47.6500 0.0000
47.6600 0.0000
47.6700 0.0000
47.6800 0.0000
47.6900 0.9858
47.7000 0.0000
47.7100 0.0000
47.7200 0.0000
47.7300 0.0000
47.7400 0.0000
47.7500 0.0000
47.7600 0.0000
47.7700 0.0000
47.7800 0.0000
47.7900 0.0813
47.8000 1.9804
47.8100 0.0000
47.8200 0.0000
47.8300 0.0000
47.8400 0.0000
47.8500 0.0000
47.8600 0.0000
47.8700 0.0000
47.8800 0.0000
47.8900 0.9729
47.9000 0.0000
47.9100 0.0000
47.9200 0.0000
47.9300 0.0000
47.9400 0.0000
47.9500 1.0039
47.9600 0.0000
47.9700 0.0000
47.9800 0.0000
47.9900 0.9639
48.0000 0.0914
48.0100 1.2149
48.0200 2.9842
48.0300 1.4761
48.0400 1.3614
48.0500 2.6443
48.0600 1.4429
48.0700 3.6192
48.0800 1.3836
48.0900 0.8987
48.1000 1.0759
48.1100 2.1144
48.1200 1.1296
48.1300 0.0000
48.1400 0.0000
48.1500 0.0000
48.1600 0.0000
48.1700 2.0460
48.1800 0.7800
48.1900 2.2845
48.2000 0.0000
48.2100 1.0078
48.2200 0.0000
48.2300 0.0000
48.2400 0.6502
48.2500 1.3313
48.2600 0.0000
48.2700 0.0000
48.2800 0.0000
48.2900 0.0000
48.3000 0.0000
48.3100 0.0000
48.3200 0.0818
48.3300 0.9001
48.3400 0.0000
48.3500 0.0000
48.3600 0.0000
48.3700 0.0000
48.3800 0.0000
48.3900 0.0000
48.4000 0.0000
48.4100 0.0000
48.4200 0.0000
48.4300 0.0000
48.4400 0.0000
48.4500 0.0000
48.4600 1.0094
48.4700 0.0000
48.4800 0.0000
48.4900 0.0000
48.5000 0.8090
48.5100 0.2250
48.5200 0.0000
48.5300 0.0000
48.5400 0.1671
48.5500 0.8774
48.5600 0.0000
48.5700 0.0000
48.5800 0.0000
48.5900 0.0000
48.6000 0.0000
48.6100 1.0330
48.6200 0.0000
48.6300 0.0000
48.6400 0.0000
48.6500 0.0000
48.6600 0.0000
48.6700 0.0000
48.6800 0.0000
48.6900 0.0000
48.7000 0.0000
48.7100 0.0000
48.7200 0.0000
48.7300 0.0000
48.7400 0.0000
48.7500 0.0000
48.7600 0.2422
48.7700 0.7813
48.7800 0.0000
48.7900 0.0000
48.8000 0.0000
48.8100 0.0000
48.8200 0.0000
48.8300 0.0000
48.8400 0.0000
48.8500 0.0000
48.8600 0.0000
48.8700 0.0000
48.8800 0.0000
48.8900 0.0000
48.9000 0.0000
48.9100 0.0000
48.9200 0.0000
48.9300 0.0000
48.9400 0.0000
48.9500 0.0000
48.9600 0.0000
48.9700 0.0000
48.9800 0.9734
48.9900 0.0000
49.0000 0.0000
49.0100 0.0000
49.0200 0.6562
49.0300 0.2936
49.0400 0.0000
49.0500 0.0000
49.0600 2.0108
49.0700 0.9588
49.0800 0.0000
49.0900 0.0000
49.1000 0.4373
49.1100 0.5430
49.1200 0.0000
49.1300 0.0000
49.1400 0.0000
49.1500 0.0000
49.1600 0.0000
49.1700 0.0000
49.1800 0.0000
49.1900 0.3008
49.2000 0.7167
49.2100 0.0000
49.2200 0.0000
49.2300 2.3826
49.2400 0.6709
49.2500 0.8130
49.2600 0.1302
49.2700 1.0113
49.2800 0.0000
49.2900 0.0000
49.3000 0.0000
49.3100 0.0000
49.3200 0.0000
49.3300 0.0000
49.3400 0.0000
49.3500 4.3329
49.3600 0.5797
49.3700 0.9313
49.3800 0.0050
49.3900 1.1021
49.4000 0.0000
49.4100 5.3250
49.4200 0.6286
49.4300 0.9267
49.4400 0.0000
49.4500 0.0000
49.4600 0.0000
49.4700 1.0743
49.4800 0.0000
49.4900 0.0000
49.5000 0.2783
49.5100 0.9762
49.5200 0.0751
49.5300 0.1078
49.5400 0.5760
49.5500 0.3849
49.5600 0.0000
49.5700 0.0000
49.5800 0.0000
49.5900 1.0886
49.6000 0.0000
49.6100 1.0517
49.6200 0.0000
49.6300 0.0000
49.6400 0.0000
49.6500 0.0000
49.6600 0.0000
49.6700 0.0000
49.6800 0.0000
49.6900 0.0000
49.7000 0.1111
49.7100 1.9155
49.7200 0.0000
49.7300 0.0000
49.7400 0.0000
49.7500 0.5722
49.7600 0.4115
49.7700 0.0000
49.7800 2.0686
49.7900 0.0000
49.8000 0.0000
49.8100 0.0000
49.8200 1.0452
49.8300 0.3413
49.8400 0.6718
49.8500 0.0000
49.8600 0.5946
49.8700 0.3644
49.8800 0.0000
49.8900 0.0000
49.9000 0.9711
49.9100 0.0000
49.9200 0.0000
49.9300 0.0000
49.9400 0.0000
49.9500 0.9997
49.9600 0.0000
49.9700 0.0000
49.9800 0.0000
49.9900 0.7798
50.0000 1.0996
50.0100 0.0595
50.0200 0.1313
50.0300 0.8764
50.0400 0.0000
50.0500 0.4148
50.0600 1.6261
50.0700 0.5719
50.0800 1.4069
50.0900 0.0000
50.1000 1.9826
50.1100 0.0000
50.1200 0.0000
50.1300 0.0000
50.1400 0.0000
50.1500 0.0000
50.1600 0.0000
50.1700 0.0000
50.1800 0.0000
50.1900 0.0000
50.2000 0.0000
50.2100 0.0000
50.2200 0.0000
50.2300 0.0000
50.2400 0.0000
50.2500 0.0000
50.2600 0.3769
50.2700 1.0685
50.2800 0.5128
50.2900 0.6377
50.3000 0.3015
50.3100 0.8679
50.3200 0.1322
50.3300 0.0000
50.3400 0.0000
50.3500 0.0000
50.3600 0.0000
50.3700 0.0000
50.3800 0.0000
50.3900 0.0000
50.4000 0.0000
50.4100 0.0000
50.4200 0.0000
50.4300 0.0000
50.4400 0.0000
50.4500 0.0000
50.4600 0.0000
50.4700 0.0000
50.4800 0.0000
50.4900 0.0000
50.5000 0.0000
50.5100 1.7633
50.5200 0.2368
50.5300 0.0000
50.5400 0.0000
50.5500 0.0000
50.5600 0.0000
50.5700 0.0000
50.5800 0.0000
50.5900 0.0000
50.6000 0.0000
50.6100 0.0000
50.6200 0.0000
50.6300 1.0104
50.6400 0.0000
50.6500 0.0753
50.6600 0.9004
50.6700 0.0000
50.6800 0.0000
50.6900 0.0000
50.7000 0.0000
50.7100 0.0000
50.7200 0.0000
50.7300 0.0000
50.7400 0.0000
50.7500 1.9721
50.7600 0.0000
50.7700 0.0000
50.7800 0.0000
50.7900 0.0000
50.8000 0.0000
50.8100 0.0000
50.8200 0.0000
50.8300 0.0000
50.8400 0.0000
50.8500 0.0000
50.8600 0.0000
50.8700 0.0000
50.8800 0.0000
50.8900 0.0000
50.9000 0.0000
50.9100 0.0000
50.9200 0.0000
50.9300 0.0000
50.9400 0.0000
50.9500 0.9637
50.9600 0.0965
50.9700 0.0000
50.9800 0.0000
50.9900 0.0000
51.0000 0.0000
51.0100 0.0000
51.0200 0.0000
51.0300 0.0000
51.0400 0.0000
51.0500 0.0000
51.0600 0.0000
51.0700 0.0000
51.0800 0.0000
51.0900 0.9944
51.1000 0.0000
51.1100 0.0000
51.1200 0.0000
51.1300 0.0000
51.1400 0.0000
51.1500 0.0000
51.1600 0.0000
51.1700 0.0000
51.1800 0.0000
51.1900 0.0000
51.2000 0.0000
51.2100 0.0000
51.2200 0.0000
51.2300 0.0000
51.2400 0.0000
51.2500 0.0000
51.2600 0.0000
51.2700 0.0000
51.2800 0.0504
51.2900 3.0262
51.3000 0.2181
51.3100 0.8067
51.3200 0.0000
51.3300 0.0709
51.3400 0.6313
51.3500 2.1064
51.3600 1.9444
51.3700 1.5761
51.3800 0.0211
51.3900 1.0157
51.4000 0.0000
51.4100 0.0000
51.4200 0.0000
51.4300 0.6248
51.4400 0.0000
51.4500 1.3235
51.4600 0.0000
51.4700 1.0985
51.4800 0.0000
51.4900 0.0000
51.5000 0.0000
51.5100 0.0000
51.5200 0.0000
51.5300 0.0000
51.5400 0.0000
51.5500 0.5502
51.5600 1.0819
51.5700 0.3351
51.5800 0.0000
51.5900 0.9076
51.6000 0.0475
51.6100 1.0099
51.6200 0.0000
51.6300 0.0000
51.6400 0.0000
51.6500 0.5059
51.6600 0.4733
51.6700 0.7253
51.6800 0.3029
51.6900 0.0000
51.7000 0.0000
51.7100 0.0000
51.7200 0.1739
51.7300 0.8066
51.7400 0.0000
51.7500 0.0000
51.7600 0.0000
51.7700 0.0000
51.7800 0.0000
51.7900 0.0000
51.8000 0.0000
51.8100 0.0000
51.8200 0.0000
51.8300 0.0000
51.8400 0.0000
51.8500 0.0000
51.8600 0.4814
51.8700 0.4836
51.8800 0.0000
51.8900 0.7924
51.9000 0.2208
51.9100 0.0000
51.9200 0.0000
51.9300 0.0000
51.9400 0.0000
51.9500 0.9557
51.9600 0.0000
51.9700 1.9971
51.9800 0.0000
51.9900 0.9739
52.0000 0.0000
52.0100 0.0000
52.0200 0.0000
52.0300 0.0000
52.0400 0.0000
52.0500 0.0000
52.0600 0.0000
52.0700 0.0000
52.0800 0.0000
52.0900 0.0000
52.1000 0.0000
52.1100 0.0000
52.1200 0.0000
52.1300 0.9827
52.1400 0.0000
52.1500 0.0000
52.1600 0.0000
52.1700 0.0000
52.1800 0.0000
52.1900 0.0000
52.2000 0.0000
52.2100 0.0000
52.2200 0.0000
52.2300 0.0000
52.2400 0.0000
52.2500 0.0000
52.2600 0.9477
52.2700 0.0000
52.2800 0.0000
52.2900 0.0000
52.3000 0.0000
52.3100 0.0000
52.3200 0.0000
52.3300 0.0000
52.3400 1.0018
52.3500 0.0000
52.3600 0.0000
52.3700 0.0000
52.3800 0.0000
52.3900 1.0179
52.4000 1.0223
52.4100 0.0000
52.4200 0.0000
52.4300 0.0000
52.4400 0.0000
