#Collected Data-7
#Intensity_unit=counts
#Attenuator_coefficient=1.000000
40.0000 3.5580
40.0100 1.0599
40.0200 0.3442
40.0300 0.0000
40.0400 2.0263
40.0500 0.0182
40.0600 0.9325
40.0700 0.0000
40.0800 0.0000
40.0900 0.0000
40.1000 0.0000
40.1100 0.6076
40.1200 0.4301
40.1300 0.7665
40.1400 1.0924
40.1500 0.1313
40.1600 0.0000
40.1700 0.9977
40.1800 0.2509
40.1900 1.7648
40.2000 0.0000
40.2100 1.0045
40.2200 0.0000
40.2300 1.0024
40.2400 0.0000
40.2500 0.0000
40.2600 0.0000
40.2700 0.0000
40.2800 0.1791
40.2900 0.7622
40.3000 1.0725
40.3100 0.0000
40.3200 0.0000
40.3300 1.0250
40.3400 0.0000
40.3500 0.0000
40.3600 0.0000
40.3700 0.0000
40.3800 0.0000
40.3900 0.0000
40.4000 0.0000
40.4100 0.0000
40.4200 0.0000
40.4300 0.6029
40.4400 0.3918
40.4500 0.7937
40.4600 0.2047
40.4700 1.0179
40.4800 2.0861
40.4900 0.0000
40.5000 0.0000
40.5100 0.0000
40.5200 0.0000
40.5300 0.0000
40.5400 1.3012
40.5500 0.7177
40.5600 0.9580
40.5700 0.0000
40.5800 2.0999
40.5900 0.1161
40.6000 0.8808
40.6100 0.3001
40.6200 0.6831
40.6300 0.0000
40.6400 0.0000
40.6500 0.9935
40.6600 2.0239
40.6700 0.0000
40.6800 0.0000
40.6900 0.0616
40.7000 0.9582
40.7100 0.5121
40.7200 1.8810
40.7300 1.0709
40.7400 1.0670
40.7500 1.4504
40.7600 1.6838
40.7700 2.0321
40.7800 0.1846
40.7900 0.0000
40.8000 0.0000
40.8100 0.0000
40.8200 0.0000
40.8300 0.0000
40.8400 0.0000
40.8500 0.0000
40.8600 0.0000
40.8700 0.0000
40.8800 0.9277
40.8900 0.0000
40.9000 1.0392
40.9100 2.1008
40.9200 1.2423
40.9300 1.2056
40.9400 1.4972
40.9500 3.1333
40.9600 0.0000
40.9700 1.0553
40.9800 1.7372
40.9900 0.4402
41.0000 0.9669
41.0100 0.0131
41.0200 0.9951
41.0300 0.0000
41.0400 0.0000
41.0500 0.0000
41.0600 0.5823
41.0700 1.1319
41.0800 0.3601
41.0900 1.0031
41.1000 0.0000
41.1100 0.0239
41.1200 0.9339
41.1300 0.0000
41.1400 1.0412
41.1500 0.0000
41.1600 0.9608
41.1700 0.5853
41.1800 1.1315
41.1900 1.3787
41.2000 0.9699
41.2100 0.0000
41.2200 0.0000
41.2300 0.0000
41.2400 0.0000
41.2500 0.3896
41.2600 1.6555
41.2700 0.5486
41.2800 1.0842
41.2900 0.3576
41.3000 0.8387
41.3100 1.1530
41.3200 0.0000
41.3300 0.0000
41.3400 0.0000
41.3500 0.0000
41.3600 0.3871
41.3700 1.0908
41.3800 0.5130
41.3900 0.9574
41.4000 0.0000
41.4100 0.8044
41.4200 0.1344
41.4300 0.0000
41.4400 0.0000
41.4500 0.0000
41.4600 0.0000
41.4700 0.0000
41.4800 0.0000
41.4900 0.0000
41.5000 0.0000
41.5100 0.0000
41.5200 0.0000
41.5300 0.0000
41.5400 0.0000
41.5500 0.1793
41.5600 0.8261
41.5700 0.0000
41.5800 0.0000
41.5900 0.0000
41.6000 0.9930
41.6100 0.0000
41.6200 0.0000
41.6300 0.0000
41.6400 2.0518
41.6500 0.9405
41.6600 2.0081
41.6700 0.0000
41.6800 0.0000
41.6900 0.4958
41.7000 0.4961
41.7100 0.0000
41.7200 0.7413
41.7300 2.0159
41.7400 1.0897
41.7500 0.0000
41.7600 0.0000
41.7700 0.2513
41.7800 0.7341
41.7900 0.0000
41.8000 0.0000
41.8100 0.9888
41.8200 0.0000
41.8300 0.0000
41.8400 0.0000
41.8500 0.0000
41.8600 1.0701
41.8700 0.0000
41.8800 1.0368
41.8900 0.3874
41.9000 1.0885
41.9100 1.0943
41.9200 0.4276
41.9300 0.0000
41.9400 1.0602
41.9500 0.0000
41.9600 0.0000
41.9700 0.0000
41.9800 0.0000
41.9900 0.0000
42.0000 0.0000
42.0100 0.9777
42.0200 1.5991
42.0300 0.3681
42.0400 0.0000
42.0500 2.5599
42.0600 1.1119
42.0700 0.3428
42.0800 0.1715
42.0900 1.7991
42.1000 1.1141
42.1100 1.8968
42.1200 0.5430
42.1300 0.4287
42.1400 0.7305
42.1500 0.2466
42.1600 0.0000
42.1700 0.0000
42.1800 0.0398
42.1900 0.2782
42.2000 0.1997
42.2100 0.4364
42.2200 0.0000
42.2300 0.0000
42.2400 1.7275
42.2500 1.2893
42.2600 0.0000
42.2700 0.0000
42.2800 0.0000
42.2900 0.0000
42.3000 1.9931
42.3100 0.0000
42.3200 0.0000
42.3300 0.0000
42.3400 0.0000
42.3500 0.0000
42.3600 0.0000
42.3700 0.3148
42.3800 0.0481
42.3900 4.7581
42.4000 1.0661
42.4100 0.7989
42.4200 1.0396
42.4300 0.0000
42.4400 0.0000
42.4500 0.0000
42.4600 1.0255
42.4700 0.8641
42.4800 0.1376
42.4900 0.0000
42.5000 0.1689
42.5100 2.0606
42.5200 1.0258
42.5300 1.0014
42.5400 1.9506
42.5500 0.0000
42.5600 2.0455
42.5700 0.0000
42.5800 0.0000
42.5900 0.9794
42.6000 0.0046
42.6100 0.0000
42.6200 1.2835
42.6300 1.1053
42.6400 0.6426
42.6500 0.0000
42.6600 0.9654
42.6700 0.9683
42.6800 0.0000
42.6900 0.0000
42.7000 1.0531
42.7100 0.0000
42.7200 0.0000
42.7300 0.0000
42.7400 0.0000
42.7500 1.9943
42.7600 0.5813
42.7700 0.3875
42.7800 0.0000
42.7900 0.0000
42.8000 0.9692
42.8100 0.0000
42.8200 0.1684
42.8300 0.8435
42.8400 0.0000
42.8500 0.0000
42.8600 0.0000
42.8700 0.9787
42.8800 1.4609
42.8900 0.5328
42.9000 0.0000
42.9100 1.0201
42.9200 0.1107
42.9300 2.8250
42.9400 0.9923
42.9500 0.0000
42.9600 0.0000
42.9700 0.0000
42.9800 0.0000
42.9900 0.0000
43.0000 0.8087
43.0100 3.1567
43.0200 0.0823
43.0300 0.0000
43.0400 0.0000
43.0500 0.0000
43.0600 0.9436
43.0700 1.0417
43.0800 0.9378
43.0900 1.6902
43.1000 0.8857
43.1100 0.0000
43.1200 0.3080
43.1300 0.0929
43.1400 0.9098
43.1500 1.0114
43.1600 0.3837
43.1700 0.6373
43.1800 0.5766
43.1900 1.4039
43.2000 0.0000
43.2100 0.0000
43.2200 0.0000
43.2300 1.1273
43.2400 1.0076
43.2500 0.5424
43.2600 1.9900
43.2700 1.3516
43.2800 0.0000
43.2900 0.5878
43.3000 1.0709
43.3100 0.2968
43.3200 0.8599
43.3300 1.0985
43.3400 0.0196
43.3500 0.0000
43.3600 0.2659
43.3700 1.1129
43.3800 1.1175
43.3900 1.1202
43.4000 1.1136
43.4100 0.3580
43.4200 0.0000
43.4300 0.8860
43.4400 0.0901
43.4500 0.9190
43.4600 0.0000
43.4700 0.0000
43.4800 0.7990
43.4900 1.2164
43.5000 0.0000
43.5100 0.0000
43.5200 0.0000
43.5300 0.0000
43.5400 0.0000
43.5500 0.9828
43.5600 0.0000
43.5700 0.0000
43.5800 1.3285
43.5900 0.6625
43.6000 0.0000
43.6100 1.5813
43.6200 1.7978
43.6300 1.3097
43.6400 0.1729
43.6500 0.0011
43.6600 1.0712
43.6700 0.8951
43.6800 0.2706
43.6900 0.6812
43.7000 0.9195
43.7100 2.0063
43.7200 0.6642
43.7300 0.3393
43.7400 0.9156
43.7500 0.0000
43.7600 0.0000
43.7700 0.0000
43.7800 0.0000
43.7900 0.3217
43.8000 1.6377
43.8100 0.0000
43.8200 1.6292
43.8300 0.3769
43.8400 0.0000
43.8500 0.0000
43.8600 0.0000
43.8700 1.0453
43.8800 0.0000
43.8900 0.0000
43.9000 0.0000
43.9100 0.8646
43.9200 1.0340
43.9300 0.0000
43.9400 0.0000
43.9500 0.0000
43.9600 0.9960
43.9700 0.0218
43.9800 0.9813
43.9900 0.9885
44.0000 0.0000
44.0100 0.0000
44.0200 0.0000
44.0300 0.0000
44.0400 0.0000
44.0500 1.7263
44.0600 0.2170
44.0700 0.0000
44.0800 0.1195
44.0900 1.8684
44.1000 1.5263
44.1100 2.1934
44.1200 1.8498
44.1300 0.6007
44.1400 0.5963
44.1500 0.3556
44.1600 0.7976
44.1700 0.1808
44.1800 0.0000
44.1900 0.0000
44.2000 0.0000
44.2100 0.0000
44.2200 0.0000
44.2300 1.0147
44.2400 2.1142
44.2500 1.0031
44.2600 0.0000
44.2700 0.0000
44.2800 0.9348
44.2900 1.0047
44.3000 1.1059
44.3100 1.7794
44.3200 1.0151
44.3300 1.0089
44.3400 0.9950
44.3500 0.5874
44.3600 1.0781
44.3700 1.3213
44.3800 0.0000
44.3900 1.0329
44.4000 2.9310
44.4100 0.0000
44.4200 1.4976
44.4300 1.8034
44.4400 1.0880
44.4500 2.4892
44.4600 0.6758
44.4700 1.8585
44.4800 3.9914
44.4900 6.1802
44.5000 7.3337
44.5100 3.4275
44.5200 5.8319
44.5300 14.4226
44.5400 12.7071
44.5500 14.1688
44.5600 13.4553
44.5700 13.8844
44.5800 29.2111
44.5900 24.9901
44.6000 26.9533
44.6100 18.9587
44.6200 18.1752
44.6300 22.7617
44.6400 24.3032
44.6500 22.1868
44.6600 18.0596
44.6700 18.3580
44.6800 13.1006
44.6900 7.8681
44.7000 8.7367
44.7100 11.3030
44.7200 10.4031
44.7300 4.0931
44.7400 4.0202
44.7500 4.0398
44.7600 3.2022
44.7700 0.5238
44.7800 1.6544
44.7900 0.3345
44.8000 2.6561
44.8100 0.4450
44.8200 1.0136
44.8300 0.0000
44.8400 1.2077
44.8500 0.7315
44.8600 2.0065
44.8700 1.0278
44.8800 1.9519
44.8900 0.6841
44.9000 0.2848
44.9100 0.8703
44.9200 0.1023
44.9300 3.9696
44.9400 0.0000
44.9500 1.9843
44.9600 0.0000
44.9700 0.9509
44.9800 0.0000
44.9900 0.0000
45.0000 1.0212
45.0100 0.0000
45.0200 0.0000
45.0300 1.0310
45.0400 0.0000
45.0500 0.0000
45.0600 0.0000
45.0700 0.9795
45.0800 0.0000
45.0900 0.0000
45.1000 0.6826
45.1100 0.3091
45.1200 0.0000
45.1300 0.0000
45.1400 0.0000
45.1500 1.9116
45.1600 0.0000
45.1700 0.9710
45.1800 0.0000
45.1900 0.5339
45.2000 1.1305
45.2100 0.3907
45.2200 0.0000
45.2300 0.9062
45.2400 1.1065
45.2500 1.0043
45.2600 0.0000
45.2700 0.2889
45.2800 0.6970
45.2900 0.0000
45.3000 0.0000
45.3100 0.0000
45.3200 0.9728
45.3300 0.8631
45.3400 0.1412
45.3500 0.0000
45.3600 0.0000
45.3700 0.0000
45.3800 0.0000
45.3900 0.4041
45.4000 0.5451
45.4100 2.0032
45.4200 0.0000
45.4300 0.0000
45.4400 0.0000
45.4500 0.0000
45.4600 0.0000
45.4700 0.0000
45.4800 0.0000
45.4900 0.0000
45.5000 1.0146
45.5100 0.5429
45.5200 0.4292
45.5300 0.0000
45.5400 0.0000
45.5500 0.0000
45.5600 0.9708
45.5700 0.0000
45.5800 0.0000
45.5900 0.2974
45.6000 0.6507
45.6100 0.9426
45.6200 0.0000
45.6300 0.6887
45.6400 1.3190
45.6500 0.9790
45.6600 0.9763
45.6700 0.0000
45.6800 0.1641
45.6900 0.8413
45.7000 0.0000
45.7100 0.4450
45.7200 1.0716
45.7300 1.1113
45.7400 0.3848
45.7500 0.0000
45.7600 0.0000
45.7700 0.0000
45.7800 0.0000
45.7900 0.1940
45.8000 0.7687
45.8100 0.0000
45.8200 1.0067
45.8300 0.0000
45.8400 0.0000
45.8500 1.0326
45.8600 0.0000
45.8700 0.0000
45.8800 0.0000
45.8900 0.1421
45.9000 0.8345
45.9100 1.0883
45.9200 2.3430
45.9300 0.5842
45.9400 0.0000
45.9500 0.0000
45.9600 0.0000
45.9700 0.0000
45.9800 0.0000
45.9900 1.0136
46.0000 0.0000
46.0100 0.0000
46.0200 0.0000
46.0300 1.4232
46.0400 0.5389
46.0500 0.0000
46.0600 0.9884
46.0700 0.9792
46.0800 0.9616
46.0900 2.1282
46.1000 0.9676
46.1100 0.0000
46.1200 1.0295
46.1300 0.0000
46.1400 1.1069
46.1500 0.0000
46.1600 0.9929
46.1700 1.0724
46.1800 0.0000
46.1900 0.0000
46.2000 0.0000
46.2100 0.0000
46.2200 0.0000
46.2300 0.3748
46.2400 0.6812
46.2500 1.0043
46.2600 0.6424
46.2700 0.3644
46.2800 0.9570
46.2900 0.0000
46.3000 0.0000
46.3100 0.0000
46.3200 0.9844
46.3300 0.0000
46.3400 0.0000
46.3500 0.5066
46.3600 0.5323
46.3700 0.0000
46.3800 0.0000
46.3900 0.5617
46.4000 0.0875
46.4100 0.3246
46.4200 0.0000
46.4300 1.0269
46.4400 1.0639
46.4500 0.4543
46.4600 1.5916
46.4700 0.0000
46.4800 1.0158
46.4900 0.0000
46.5000 0.0000
46.5100 0.9913
46.5200 0.0021
46.5300 0.1892
46.5400 0.8240
46.5500 0.3722
46.5600 0.6190
46.5700 0.0000
46.5800 0.0000
46.5900 0.0000
46.6000 0.8157
46.6100 1.0815
46.6200 0.0577
46.6300 1.0634
46.6400 0.8737
46.6500 0.0000
46.6600 1.3997
46.6700 0.5777
46.6800 0.0000
46.6900 0.0000
46.7000 0.0000
46.7100 0.0000
46.7200 1.0297
46.7300 0.9871
46.7400 0.0000
46.7500 0.0000
46.7600 0.0000
46.7700 0.0000
46.7800 0.9599
46.7900 0.0000
46.8000 0.0000
46.8100 0.0000
46.8200 0.9370
46.8300 0.0959
46.8400 2.1102
46.8500 0.0000
46.8600 0.1384
46.8700 0.0000
46.8800 0.0000
46.8900 1.0087
46.9000 1.6675
46.9100 0.3344
46.9200 0.0000
46.9300 0.0000
46.9400 1.0119
46.9500 0.0000
46.9600 0.0000
46.9700 0.0000
46.9800 0.0000
46.9900 0.0000
47.0000 0.0000
47.0100 0.0000
47.0200 0.0000
47.0300 0.0000
47.0400 0.0008
47.0500 1.9540
47.0600 0.0000
47.0700 0.0000
47.0800 1.0532
47.0900 0.0000
47.1000 0.0000
47.1100 0.0000
47.1200 2.0254
47.1300 0.0000
47.1400 0.9416
47.1500 0.0922
47.1600 0.9105
47.1700 0.2214
47.1800 2.0847
47.1900 0.7644
47.2000 0.0000
47.2100 0.5991
47.2200 0.3903
47.2300 0.0000
47.2400 0.0000
47.2500 0.9535
47.2600 0.0000
47.2700 0.0000
47.2800 0.0000
47.2900 0.0000
47.3000 0.0000
47.3100 0.5580
47.3200 0.4575
47.3300 0.0000
47.3400 0.8187
47.3500 1.0782
47.3600 1.0545
47.3700 0.9913
47.3800 1.0338
47.3900 0.0000
47.4000 1.0197
47.4100 0.0000
47.4200 0.5912
47.4300 0.4145
47.4400 0.0000
47.4500 0.0000
47.4600 0.0000
47.4700 1.0404
47.4800 0.0000
47.4900 0.0000
47.5000 0.0000
47.5100 1.4582
47.5200 0.5428
47.5300 1.6388
47.5400 1.8386
47.5500 2.2236
47.5600 0.3765
47.5700 0.0000
47.5800 0.0000
47.5900 0.0000
47.6000 0.0000
47.6100 1.4601
47.6200 0.6214
47.6300 0.0000
47.6400 0.6643
47.6500 2.8430
47.6600 1.4680
47.6700 0.8804
47.6800 0.0486
47.6900 3.0016
47.7000 0.0000
47.7100 1.9195
47.7200 0.0000
47.7300 0.0000
47.7400 0.0000
47.7500 0.0000
47.7600 0.0000
47.7700 0.0000
47.7800 1.0608
47.7900 0.0000
47.8000 0.0000
47.8100 0.0000
47.8200 1.3641
47.8300 2.6097
47.8400 1.0695
47.8500 0.9544
47.8600 0.7084
47.8700 0.2474
47.8800 0.0000
47.8900 1.9500
47.9000 0.0000
47.9100 0.0000
47.9200 0.0000
47.9300 0.9578
47.9400 0.5607
47.9500 3.1363
47.9600 0.4029
47.9700 0.9874
47.9800 0.0000
47.9900 0.9364
48.0000 0.0652
48.0100 0.9750
48.0200 0.0000
48.0300 0.0000
48.0400 0.9050
48.0500 0.0000
48.0600 0.0000
48.0700 0.0000
48.0800 0.0000
48.0900 1.8028
48.1000 2.1495
48.1100 1.1173
48.1200 0.8456
48.1300 1.0009
48.1400 0.0000
48.1500 4.9348
48.1600 0.0000
48.1700 0.0000
48.1800 1.7061
48.1900 1.2654
48.2000 0.0000
48.2100 0.9568
48.2200 0.0000
48.2300 0.0000
48.2400 0.3322
48.2500 1.7135
48.2600 0.0000
48.2700 0.0000
48.2800 1.4409
48.2900 0.6009
48.3000 0.0000
48.3100 3.0445
48.3200 1.0248
48.3300 2.0072
48.3400 0.0000
48.3500 0.0000
48.3600 0.0000
48.3700 2.0797
48.3800 0.6515
48.3900 0.3513
48.4000 0.0000
48.4100 0.0000
48.4200 0.0000
48.4300 0.0000
48.4400 1.0009
48.4500 0.0000
48.4600 0.0000
48.4700 0.4822
48.4800 0.4837
48.4900 0.0000
48.5000 0.0000
48.5100 0.0000
48.5200 1.9065
48.5300 0.0269
48.5400 0.0000
48.5500 0.2446
48.5600 0.7169
48.5700 0.0000
48.5800 1.5412
48.5900 0.4797
48.6000 1.0095
48.6100 0.0000
48.6200 0.0000
48.6300 0.9801
48.6400 0.9522
48.6500 0.0000
48.6600 0.9960
48.6700 0.0000
48.6800 0.4909
48.6900 0.5286
48.7000 0.0000
48.7100 1.0226
48.7200 0.0000
48.7300 0.0000
48.7400 0.9353
48.7500 0.0000
48.7600 0.0000
48.7700 1.3388
48.7800 2.6454
48.7900 2.0599
48.8000 0.9565
48.8100 0.0000
48.8200 1.7116
48.8300 1.1594
48.8400 0.9930
48.8500 0.0082
48.8600 0.1740
48.8700 0.7894
48.8800 0.0000
48.8900 0.0000
48.9000 0.0000
48.9100 0.0000
48.9200 0.7481
48.9300 1.3377
48.9400 1.9378
48.9500 0.0308
48.9600 0.9905
48.9700 0.2382
48.9800 0.8499
48.9900 1.1133
49.0000 1.0134
49.0100 0.5938
49.0200 1.3559
49.0300 0.7052
49.0400 0.1928
49.0500 0.0000
49.0600 2.8756
49.0700 1.0095
49.0800 2.2102
49.0900 0.7179
49.1000 2.4506
49.1100 0.5921
49.1200 0.6314
49.1300 0.3632
49.1400 0.0000
49.1500 0.0000
49.1600 0.9994
49.1700 0.9948
49.1800 0.0000
49.1900 0.9567
49.2000 0.0000
49.2100 0.0000
49.2200 0.0000
49.2300 0.0000
49.2400 0.9992
49.2500 0.0000
49.2600 1.9966
49.2700 0.0437
49.2800 0.9857
49.2900 0.0000
49.3000 0.0000
49.3100 0.9912
49.3200 1.0301
49.3300 1.2266
49.3400 0.7610
49.3500 0.0000
49.3600 0.0000
49.3700 0.0000
49.3800 0.9819
49.3900 0.9927
49.4000 0.0000
49.4100 0.3798
49.4200 0.6404
49.4300 0.0000
49.4400 0.0000
49.4500 0.7066
49.4600 0.2357
49.4700 0.0000
49.4800 0.9682
49.4900 0.0000
49.5000 0.0000
49.5100 0.0000
49.5200 0.9398
49.5300 0.9830
49.5400 0.6291
49.5500 0.4205
49.5600 1.0354
49.5700 0.0000
49.5800 0.0000
49.5900 0.0000
49.6000 0.0000
49.6100 0.0000
49.6200 0.0000
49.6300 0.0000
49.6400 0.0000
49.6500 0.9789
49.6600 0.0000
49.6700 0.0000
49.6800 0.0000
49.6900 0.0000
49.7000 0.0000
49.7100 0.2036
49.7200 0.7939
49.7300 0.0000
49.7400 0.0000
49.7500 0.5684
49.7600 1.3870
49.7700 0.0000
49.7800 0.0000
49.7900 0.9727
49.8000 1.0138
49.8100 0.0000
49.8200 0.2263
49.8300 1.6909
49.8400 0.0000
49.8500 0.9670
49.8600 1.9835
49.8700 0.0000
49.8800 1.0333
49.8900 0.9600
49.9000 1.9211
49.9100 0.0967
49.9200 0.9317
49.9300 0.0000
49.9400 0.9948
49.9500 0.9846
49.9600 2.6090
49.9700 0.4341
49.9800 0.0000
49.9900 0.0000
50.0000 0.9120
50.0100 1.0303
50.0200 0.9759
50.0300 0.0000
50.0400 0.0000
50.0500 0.0000
50.0600 2.0515
50.0700 0.0000
50.0800 0.0000
50.0900 0.0000
50.1000 0.9734
50.1100 0.1259
50.1200 0.0000
50.1300 0.0000
50.1400 0.0000
50.1500 0.0000
50.1600 0.0000
50.1700 0.5656
50.1800 0.4698
50.1900 0.0000
50.2000 0.0000
50.2100 0.0000
50.2200 0.0000
50.2300 0.0000
50.2400 0.9952
50.2500 0.0000
50.2600 0.0000
50.2700 0.0000
50.2800 0.0000
50.2900 1.6809
50.3000 0.3243
50.3100 0.0000
50.3200 0.9453
50.3300 0.0372
50.3400 0.0000
50.3500 0.0000
50.3600 0.3369
50.3700 0.6547
50.3800 0.0000
50.3900 1.1763
50.4000 0.0000
50.4100 1.0390
50.4200 0.8605
50.4300 0.0902
50.4400 1.9749
50.4500 0.0000
50.4600 0.0000
50.4700 0.0000
50.4800 0.0000
50.4900 0.0000
50.5000 0.0000
50.5100 0.0000
50.5200 2.0018
50.5300 0.9796
50.5400 0.0000
50.5500 0.0000
50.5600 0.0000
50.5700 0.0000
50.5800 0.9870
50.5900 1.0225
50.6000 0.0000
50.6100 0.0000
50.6200 0.0000
50.6300 0.9757
50.6400 1.0278
50.6500 0.0000
50.6600 0.1635
50.6700 0.7893
50.6800 1.3441
50.6900 0.6315
50.7000 0.5917
50.7100 0.4857
50.7200 0.9378
50.7300 0.0000
50.7400 1.0036
50.7500 0.0230
50.7600 1.1778
50.7700 0.8527
50.7800 2.0207
50.7900 0.4190
50.8000 0.6320
50.8100 0.0000
50.8200 3.4211
50.8300 0.6501
50.8400 3.9282
50.8500 2.0687
50.8600 2.1272
50.8700 0.3016
50.8800 1.9062
50.8900 0.7501
50.9000 0.9578
50.9100 0.0000
50.9200 0.6847
50.9300 0.4094
50.9400 0.0000
50.9500 1.8638
50.9600 1.0969
50.9700 1.0419
50.9800 1.0635
50.9900 0.2884
51.0000 1.1279
51.0100 0.6659
51.0200 1.6904
51.0300 1.0824
51.0400 0.3323
51.0500 0.0000
51.0600 0.0000
51.0700 0.0000
51.0800 1.1269
51.0900 0.8692
51.1000 1.3034
51.1100 1.6593
51.1200 0.0000
51.1300 0.9488
51.1400 1.4626
51.1500 1.6279
51.1600 0.9566
51.1700 0.0000
51.1800 0.0000
51.1900 0.0000
51.2000 0.0000
51.2100 0.0000
51.2200 0.9457
51.2300 0.0000
51.2400 0.0000
51.2500 0.0000
51.2600 2.7702
51.2700 0.1626
51.2800 0.0000
51.2900 0.0000
51.3000 0.0000
51.3100 0.0000
51.3200 0.0000
51.3300 1.0038
51.3400 2.9921
51.3500 0.9683
51.3600 1.0034
51.3700 0.0000
51.3800 0.0000
51.3900 0.0000
51.4000 0.0000
51.4100 0.0000
51.4200 0.0000
51.4300 0.0000
51.4400 0.0000
51.4500 0.0000
51.4600 0.0000
51.4700 0.0000
51.4800 0.9109
51.4900 0.0063
51.5000 2.0564
51.5100 1.9511
51.5200 2.2227
51.5300 0.6929
51.5400 0.0000
51.5500 1.8993
51.5600 1.6371
51.5700 2.9201
51.5800 1.5264
51.5900 0.0000
51.6000 0.0882
51.6100 1.8881
51.6200 0.0000
51.6300 0.9393
51.6400 0.0000
51.6500 0.0000
51.6600 0.0000
51.6700 0.0000
51.6800 0.0000
51.6900 0.0000
51.7000 0.0000
51.7100 0.0000
51.7200 0.3484
51.7300 1.6156
51.7400 0.0000
51.7500 1.0226
51.7600 0.0000
51.7700 0.0000
51.7800 2.7220
51.7900 1.0312
51.8000 0.1514
51.8100 0.0000
51.8200 0.2474
51.8300 1.7917
51.8400 0.0000
51.8500 0.0000
51.8600 0.0000
51.8700 0.9783
51.8800 0.0000
51.8900 2.0292
51.9000 0.0000
51.9100 0.0000
51.9200 0.0000
51.9300 0.3229
51.9400 3.2022
51.9500 2.6136
51.9600 0.0000
51.9700 0.5356
51.9800 2.1316
51.9900 1.0717
52.0000 0.2702
52.0100 0.0000
52.0200 0.0000
52.0300 0.0000
52.0400 0.0000
52.0500 0.0000
52.0600 0.0000
52.0700 0.4771
52.0800 0.5145
52.0900 0.0000
52.1000 0.0000
52.1100 2.8417
52.1200 1.0967
52.1300 0.0000
52.1400 0.0000
52.1500 0.2358
52.1600 0.7621
52.1700 0.0000
52.1800 0.0000
52.1900 1.7216
52.2000 0.3989
52.2100 0.0000
52.2200 0.0000
52.2300 0.9749
52.2400 0.0084
52.2500 0.0000
52.2600 0.0000
52.2700 0.0000
52.2800 0.9746
52.2900 0.0000
52.3000 0.0000
52.3100 0.0000
52.3200 0.0000
52.3300 0.0000
52.3400 0.0000
52.3500 1.9886
52.3600 0.0000
52.3700 0.3215
52.3800 0.7056
52.3900 1.0606
52.4000 0.0000
52.4100 0.0000
52.4200 0.7893
52.4300 0.2162
