#Collected Data-195
#Intensity_unit=counts
#Attenuator_coefficient=1.000000
40.0000 71.8292
40.0100 76.0181
40.0200 83.0945
40.0300 73.3951
40.0400 78.0983
40.0500 58.7631
40.0600 66.1487
40.0700 72.1003
40.0800 66.9739
40.0900 59.8170
40.1000 64.1107
40.1100 71.4659
40.1200 64.7507
40.1300 65.9964
40.1400 74.3525
40.1500 55.8364
40.1600 73.9055
40.1700 76.5805
40.1800 70.1319
40.1900 82.7780
40.2000 75.7913
40.2100 62.4463
40.2200 71.4374
40.2300 78.9417
40.2400 81.4677
40.2500 63.3608
40.2600 70.6990
40.2700 62.7594
40.2800 73.4777
40.2900 70.7845
40.3000 62.9367
40.3100 79.1419
40.3200 68.3948
40.3300 58.2244
40.3400 61.5229
40.3500 76.0968
40.3600 68.7946
40.3700 76.5370
40.3800 72.4816
40.3900 52.0893
40.4000 70.9596
40.4100 56.3005
40.4200 64.6577
40.4300 74.9554
40.4400 63.2158
40.4500 75.6527
40.4600 77.1687
40.4700 77.1707
40.4800 64.1128
40.4900 68.6714
40.5000 69.1010
40.5100 67.8917
40.5200 78.1509
40.5300 69.0838
40.5400 74.0204
40.5500 77.1064
40.5600 70.1349
40.5700 50.6940
40.5800 62.0525
40.5900 66.4845
40.6000 64.7186
40.6100 70.6758
40.6200 70.7709
40.6300 69.4925
40.6400 68.6711
40.6500 67.4385
40.6600 57.6156
40.6700 79.1443
40.6800 63.3482
40.6900 56.4244
40.7000 71.6070
40.7100 79.5004
40.7200 69.5650
40.7300 74.8471
40.7400 76.4211
40.7500 81.6039
40.7600 70.5361
40.7700 73.1293
40.7800 74.7901
40.7900 63.9323
40.8000 63.6488
40.8100 80.4943
40.8200 64.4417
40.8300 63.0491
40.8400 85.0794
40.8500 60.8212
40.8600 70.0193
40.8700 74.8799
40.8800 79.1838
40.8900 75.5476
40.9000 66.1775
40.9100 57.1075
40.9200 73.6186
40.9300 61.8025
40.9400 65.3147
40.9500 73.0240
40.9600 74.3957
40.9700 63.2662
40.9800 59.1659
40.9900 76.8751
41.0000 73.9087
41.0100 84.9505
41.0200 70.2790
41.0300 68.8638
41.0400 67.5245
41.0500 74.3219
41.0600 78.9466
41.0700 65.2508
41.0800 70.4134
41.0900 66.6106
41.1000 74.1170
41.1100 65.7595
41.1200 69.5509
41.1300 65.8893
41.1400 66.7489
41.1500 77.3089
41.1600 67.5874
41.1700 61.1500
41.1800 69.1217
41.1900 75.2473
41.2000 65.6702
41.2100 50.6998
41.2200 58.1646
41.2300 63.9074
41.2400 68.1558
41.2500 73.4960
41.2600 69.6494
41.2700 69.1859
41.2800 61.3786
41.2900 69.2702
41.3000 66.2519
41.3100 66.5947
41.3200 64.1098
41.3300 76.6087
41.3400 68.6455
41.3500 62.7452
41.3600 75.7043
41.3700 74.4447
41.3800 71.8308
41.3900 59.7274
41.4000 67.9462
41.4100 69.2082
41.4200 66.9013
41.4300 64.0086
41.4400 67.7642
41.4500 66.7412
41.4600 72.4790
41.4700 80.1010
41.4800 73.7333
41.4900 82.6521
41.5000 75.0447
41.5100 88.1789
41.5200 66.2982
41.5300 73.2884
41.5400 74.4340
41.5500 78.0206
41.5600 73.4799
41.5700 70.7246
41.5800 73.1053
41.5900 79.1815
41.6000 77.0289
41.6100 72.0809
41.6200 64.9346
41.6300 71.1150
41.6400 83.8339
41.6500 58.5190
41.6600 66.2678
41.6700 66.3084
41.6800 64.3382
41.6900 67.2417
41.7000 73.3617
41.7100 59.2262
41.7200 65.1357
41.7300 70.1626
41.7400 77.9383
41.7500 67.4836
41.7600 79.3900
41.7700 73.5699
41.7800 67.2048
41.7900 67.8324
41.8000 78.6277
41.8100 63.2071
41.8200 65.2361
41.8300 55.4519
41.8400 62.0561
41.8500 60.9728
41.8600 74.1480
41.8700 56.4666
41.8800 53.7063
41.8900 70.0083
41.9000 55.2017
41.9100 72.1791
41.9200 71.3654
41.9300 75.3703
41.9400 77.6593
41.9500 47.0025
41.9600 61.6710
41.9700 70.8645
41.9800 56.9666
41.9900 67.7376
42.0000 71.1612
42.0100 70.0558
42.0200 57.9148
42.0300 76.4604
42.0400 60.9997
42.0500 72.7376
42.0600 81.0712
42.0700 56.9136
42.0800 49.3894
42.0900 53.8618
42.1000 64.3580
42.1100 65.6344
42.1200 77.4471
42.1300 65.6798
42.1400 59.8388
42.1500 62.1692
42.1600 61.4910
42.1700 67.0103
42.1800 57.1234
42.1900 59.2906
42.2000 65.5316
42.2100 65.7523
42.2200 50.6105
42.2300 62.3948
42.2400 76.7133
42.2500 53.4336
42.2600 67.0644
42.2700 77.8850
42.2800 76.4419
42.2900 68.1235
42.3000 61.8492
42.3100 59.2622
42.3200 71.1662
42.3300 66.3364
42.3400 51.1005
42.3500 62.9150
42.3600 78.9538
42.3700 55.4269
42.3800 76.0196
42.3900 68.6312
42.4000 68.7749
42.4100 67.9724
42.4200 65.2127
42.4300 73.7323
42.4400 72.1223
42.4500 80.7829
42.4600 69.9393
42.4700 56.2180
42.4800 75.3319
42.4900 60.6113
42.5000 74.0996
42.5100 62.4226
42.5200 56.7155
42.5300 75.0837
42.5400 69.5307
42.5500 65.7338
42.5600 58.4457
42.5700 71.3519
42.5800 67.1921
42.5900 71.9112
42.6000 57.6857
42.6100 73.0899
42.6200 61.9314
42.6300 64.6182
42.6400 66.7697
42.6500 62.5116
42.6600 64.7516
42.6700 62.6499
42.6800 73.7030
42.6900 87.6081
42.7000 54.9373
42.7100 64.8008
42.7200 66.2923
42.7300 74.2265
42.7400 62.7526
42.7500 56.5820
42.7600 62.7669
42.7700 63.7947
42.7800 58.6063
42.7900 47.8623
42.8000 59.1985
42.8100 68.5450
42.8200 73.5237
42.8300 70.6158
42.8400 81.1136
42.8500 68.5107
42.8600 68.7576
42.8700 71.2996
42.8800 50.8332
42.8900 59.5780
42.9000 76.5496
42.9100 74.9527
42.9200 59.0591
42.9300 72.7879
42.9400 67.4961
42.9500 77.4760
42.9600 68.6890
42.9700 74.2104
42.9800 67.1543
42.9900 77.6762
43.0000 62.9433
43.0100 61.4088
43.0200 56.2100
43.0300 58.7707
43.0400 66.1327
43.0500 57.1641
43.0600 62.4176
43.0700 80.7523
43.0800 61.1834
43.0900 82.0125
43.1000 72.9050
43.1100 67.2557
43.1200 44.1746
43.1300 50.8499
43.1400 56.8478
43.1500 67.9978
43.1600 50.9624
43.1700 66.0499
43.1800 71.3280
43.1900 66.6188
43.2000 61.9473
43.2100 78.0504
43.2200 60.3517
43.2300 79.6197
43.2400 66.5579
43.2500 58.8542
43.2600 67.5336
43.2700 63.4848
43.2800 68.6547
43.2900 67.5373
43.3000 55.0207
43.3100 60.6698
43.3200 71.7391
43.3300 63.6771
43.3400 82.6398
43.3500 61.5922
43.3600 56.2520
43.3700 65.1646
43.3800 82.3763
43.3900 73.9883
43.4000 69.3354
43.4100 63.6688
43.4200 80.2030
43.4300 65.1828
43.4400 72.8586
43.4500 80.9567
43.4600 62.2798
43.4700 78.1877
43.4800 79.3099
43.4900 78.4144
43.5000 66.4935
43.5100 63.9665
43.5200 84.0229
43.5300 65.3831
43.5400 68.5858
43.5500 67.2656
43.5600 58.6559
43.5700 70.6122
43.5800 59.9542
43.5900 67.0973
43.6000 68.3276
43.6100 66.8264
43.6200 67.6186
43.6300 71.1640
43.6400 74.4920
43.6500 72.5313
43.6600 66.0084
43.6700 88.1552
43.6800 75.7492
43.6900 72.2116
43.7000 72.4515
43.7100 73.6960
43.7200 83.6128
43.7300 65.8386
43.7400 79.6340
43.7500 68.2012
43.7600 74.7139
43.7700 70.8379
43.7800 75.9044
43.7900 75.2467
43.8000 72.8102
43.8100 86.1292
43.8200 70.5305
43.8300 65.7258
43.8400 87.4179
43.8500 81.7294
43.8600 78.9621
43.8700 83.6937
43.8800 91.0147
43.8900 68.7521
43.9000 97.9200
43.9100 77.6446
43.9200 95.4951
43.9300 87.3090
43.9400 81.5621
43.9500 73.0430
43.9600 75.9305
43.9700 86.8971
43.9800 98.9347
43.9900 105.9442
44.0000 76.6130
44.0100 77.7311
44.0200 88.0901
44.0300 91.7147
44.0400 108.1555
44.0500 106.9675
44.0600 86.5235
44.0700 97.3131
44.0800 91.0439
44.0900 108.3354
44.1000 115.7646
44.1100 113.5493
44.1200 135.5034
44.1300 134.1424
44.1400 111.9385
44.1500 134.0478
44.1600 107.9011
44.1700 130.2194
44.1800 148.6157
44.1900 152.2836
44.2000 172.2226
44.2100 142.0823
44.2200 153.0992
44.2300 185.5802
44.2400 191.8256
44.2500 173.8154
44.2600 202.9350
44.2700 196.8488
44.2800 208.8840
44.2900 243.0786
44.3000 241.5020
44.3100 265.0227
44.3200 325.1037
44.3300 348.9751
44.3400 367.2670
44.3500 393.7633
44.3600 428.1622
44.3700 519.7112
44.3800 596.1872
44.3900 697.2921
44.4000 794.9427
44.4100 942.1357
44.4200 1136.4357
44.4300 1326.4535
44.4400 1667.6809
44.4500 1981.5920
44.4600 2425.7983
44.4700 2877.0479
44.4800 3309.7886
44.4900 3733.8601
44.5000 4208.3130
44.5100 4541.3125
44.5200 4886.6675
44.5300 5044.1353
44.5400 5148.5815
44.5500 5036.7568
44.5600 5063.4966
44.5700 4873.3350
44.5800 4626.8701
44.5900 4183.6509
44.6000 4066.1545
44.6100 3658.3857
44.6200 3194.8025
44.6300 2720.8425
44.6400 2394.4834
44.6500 1986.2219
44.6600 1612.8944
44.6700 1338.4188
44.6800 1054.1979
44.6900 896.8477
44.7000 728.0713
44.7100 648.4246
44.7200 512.7790
44.7300 464.3906
44.7400 407.1873
44.7500 364.8890
44.7600 321.7618
44.7700 292.8302
44.7800 261.2013
44.7900 226.6640
44.8000 213.5923
44.8100 186.2413
44.8200 221.1936
44.8300 190.1963
44.8400 169.1023
44.8500 161.2367
44.8600 135.6543
44.8700 137.6919
44.8800 151.4876
44.8900 131.3575
44.9000 108.4025
44.9100 106.1596
44.9200 113.7473
44.9300 119.1700
44.9400 124.7563
44.9500 121.6142
44.9600 111.3756
44.9700 98.7137
44.9800 99.8278
44.9900 90.7931
45.0000 99.0646
45.0100 94.4057
45.0200 90.5144
45.0300 95.9922
45.0400 87.3671
45.0500 99.2006
45.0600 91.6234
45.0700 83.1693
45.0800 85.6191
45.0900 81.7799
45.1000 74.3246
45.1100 83.5676
45.1200 73.9574
45.1300 79.2887
45.1400 80.8726
45.1500 95.1947
45.1600 83.1338
45.1700 65.2976
45.1800 61.9001
45.1900 68.6893
45.2000 67.1445
45.2100 69.0169
45.2200 72.3187
45.2300 84.6902
45.2400 72.7780
45.2500 62.1695
45.2600 86.7582
45.2700 75.5359
45.2800 78.8920
45.2900 78.7020
45.3000 67.2842
45.3100 75.3617
45.3200 90.0760
45.3300 61.6669
45.3400 67.9567
45.3500 70.2261
45.3600 67.3224
45.3700 63.9057
45.3800 70.7753
45.3900 69.9772
45.4000 77.3465
45.4100 66.1096
45.4200 77.2581
45.4300 71.4464
45.4400 82.3688
45.4500 61.2567
45.4600 78.0624
45.4700 62.0789
45.4800 65.5710
45.4900 77.2163
45.5000 74.0282
45.5100 57.7355
45.5200 49.5741
45.5300 58.4537
45.5400 59.1973
45.5500 59.9981
45.5600 64.8324
45.5700 60.5144
45.5800 70.5393
45.5900 64.2325
45.6000 61.0758
45.6100 75.4506
45.6200 66.8586
45.6300 65.8440
45.6400 71.2001
45.6500 54.7170
45.6600 59.3498
45.6700 47.0781
45.6800 65.9916
45.6900 56.7119
45.7000 59.8221
45.7100 72.5554
45.7200 55.6723
45.7300 72.6624
45.7400 61.7909
45.7500 65.5952
45.7600 72.3868
45.7700 66.3979
45.7800 65.8856
45.7900 62.4635
45.8000 59.5475
45.8100 63.4595
45.8200 65.0407
45.8300 62.2477
45.8400 55.0798
45.8500 47.7354
45.8600 72.3477
45.8700 64.6416
45.8800 68.9971
45.8900 60.4046
45.9000 64.7851
45.9100 65.9714
45.9200 63.5547
45.9300 63.8350
45.9400 84.6229
45.9500 77.7183
45.9600 61.7262
45.9700 56.6101
45.9800 58.0434
45.9900 55.3306
46.0000 63.7866
46.0100 59.6656
46.0200 70.4156
46.0300 74.6514
46.0400 66.4110
46.0500 68.5372
46.0600 72.3445
46.0700 62.8910
46.0800 59.5121
46.0900 63.6465
46.1000 55.5523
46.1100 67.9806
46.1200 74.6286
46.1300 58.9809
46.1400 55.6242
46.1500 67.8605
46.1600 67.9109
46.1700 71.4975
46.1800 56.2521
46.1900 60.4294
46.2000 75.6250
46.2100 62.7404
46.2200 63.2731
46.2300 56.4859
46.2400 62.3669
46.2500 72.5739
46.2600 71.2088
46.2700 78.9671
46.2800 65.6814
46.2900 70.9114
46.3000 56.2010
46.3100 75.8397
46.3200 62.8982
46.3300 56.2958
46.3400 60.2741
46.3500 69.3247
46.3600 68.1089
46.3700 57.4459
46.3800 81.4980
46.3900 72.5705
46.4000 67.1370
46.4100 62.9515
46.4200 50.4305
46.4300 56.9688
46.4400 61.5221
46.4500 60.1870
46.4600 61.8202
46.4700 63.7035
46.4800 68.7656
46.4900 62.2261
46.5000 65.7752
46.5100 62.5261
46.5200 61.9622
46.5300 57.7650
46.5400 60.3393
46.5500 67.4710
46.5600 61.7543
46.5700 68.7265
46.5800 63.6137
46.5900 61.0878
46.6000 65.6588
46.6100 60.7485
46.6200 63.7087
46.6300 70.1902
46.6400 64.3699
46.6500 62.8334
46.6600 48.0183
46.6700 65.1230
46.6800 53.7911
46.6900 69.2392
46.7000 55.1890
46.7100 65.4240
46.7200 66.4736
46.7300 65.7652
46.7400 63.3815
46.7500 54.7574
46.7600 52.2559
46.7700 56.2990
46.7800 59.7726
46.7900 68.2583
46.8000 67.8687
46.8100 62.1414
46.8200 62.1079
46.8300 69.1670
46.8400 53.4683
46.8500 55.0232
46.8600 61.2963
46.8700 74.6172
46.8800 59.3653
46.8900 59.3203
46.9000 51.8325
46.9100 59.7908
46.9200 74.1128
46.9300 75.2017
46.9400 72.5011
46.9500 70.6917
46.9600 55.8708
46.9700 74.9661
46.9800 81.5505
46.9900 64.1279
47.0000 62.2689
47.0100 66.8763
47.0200 63.3504
47.0300 43.9274
47.0400 57.2768
47.0500 49.3717
47.0600 60.2014
47.0700 53.6577
47.0800 57.5149
47.0900 62.3715
47.1000 50.6148
47.1100 72.8903
47.1200 63.4972
47.1300 60.1391
47.1400 56.9934
47.1500 57.1202
47.1600 67.8886
47.1700 61.3203
47.1800 66.5960
47.1900 53.2356
47.2000 51.4437
47.2100 64.0843
47.2200 57.1112
47.2300 58.7346
47.2400 61.0183
47.2500 57.4110
47.2600 65.4712
47.2700 61.8067
47.2800 60.6348
47.2900 60.2521
47.3000 58.2183
47.3100 63.9232
47.3200 57.9502
47.3300 61.3889
47.3400 64.2082
47.3500 67.8264
47.3600 69.9791
47.3700 57.2566
47.3800 55.0016
47.3900 72.1327
47.4000 65.9862
47.4100 48.2332
47.4200 65.7296
47.4300 68.1927
47.4400 68.6709
47.4500 69.2414
47.4600 59.7306
47.4700 57.0222
47.4800 62.0582
47.4900 70.3793
47.5000 62.1108
47.5100 58.8693
47.5200 51.4524
47.5300 55.0430
47.5400 59.6530
47.5500 58.9711
47.5600 66.9444
47.5700 50.3520
47.5800 66.1521
47.5900 66.6018
47.6000 55.7862
47.6100 56.4837
47.6200 53.0457
47.6300 56.8000
47.6400 62.3689
47.6500 64.1335
47.6600 66.9471
47.6700 68.6289
47.6800 76.4418
47.6900 49.7777
47.7000 62.7217
47.7100 58.5430
47.7200 69.4778
47.7300 62.2307
47.7400 60.4387
47.7500 68.5230
47.7600 53.8393
47.7700 53.7721
47.7800 58.5450
47.7900 57.8055
47.8000 50.8908
47.8100 60.3744
47.8200 56.4494
47.8300 49.6905
47.8400 57.2645
47.8500 65.9926
47.8600 50.1032
47.8700 69.7942
47.8800 61.4395
47.8900 45.7171
47.9000 62.5894
47.9100 58.6266
47.9200 57.8427
47.9300 68.3974
47.9400 66.3126
47.9500 53.7395
47.9600 52.7299
47.9700 59.5085
47.9800 57.9626
47.9900 58.3285
48.0000 50.4610
48.0100 63.0271
48.0200 60.0876
48.0300 58.1899
48.0400 64.0685
48.0500 55.9252
48.0600 51.0776
48.0700 67.4524
48.0800 57.2980
48.0900 57.8031
48.1000 58.0194
48.1100 72.3209
48.1200 65.3463
48.1300 62.4835
48.1400 65.2398
48.1500 54.7346
48.1600 58.6869
48.1700 65.2886
48.1800 56.5610
48.1900 50.9289
48.2000 64.0909
48.2100 57.8397
48.2200 63.9489
48.2300 58.5821
48.2400 60.3238
48.2500 59.5145
48.2600 54.6974
48.2700 60.1706
48.2800 63.8481
48.2900 50.6937
48.3000 52.3055
48.3100 67.6462
48.3200 69.4227
48.3300 52.2476
48.3400 60.9737
48.3500 51.3798
48.3600 63.3187
48.3700 70.0181
48.3800 56.4365
48.3900 69.4535
48.4000 61.3990
48.4100 73.2806
48.4200 61.4142
48.4300 62.6102
48.4400 56.3534
48.4500 56.8383
48.4600 48.9551
48.4700 48.7324
48.4800 58.1742
48.4900 51.1456
48.5000 60.5145
48.5100 57.0856
48.5200 65.1265
48.5300 70.2217
48.5400 69.7149
48.5500 58.6468
48.5600 62.4294
48.5700 55.8191
48.5800 65.7981
48.5900 69.0606
48.6000 59.0257
48.6100 51.3210
48.6200 61.0219
48.6300 56.7231
48.6400 65.4405
48.6500 64.6015
48.6600 56.7673
48.6700 55.9073
48.6800 62.2106
48.6900 57.4205
48.7000 61.2893
48.7100 61.6100
48.7200 69.6584
48.7300 52.4120
48.7400 70.2550
48.7500 55.4461
48.7600 66.5375
48.7700 61.8501
48.7800 71.1703
48.7900 54.8456
48.8000 64.7541
48.8100 60.0548
48.8200 58.0656
48.8300 67.8026
48.8400 46.8168
48.8500 46.3006
48.8600 61.4718
48.8700 68.2689
48.8800 52.9255
48.8900 55.8282
48.9000 62.8269
48.9100 70.1602
48.9200 69.5819
48.9300 57.3886
48.9400 53.4798
48.9500 67.1177
48.9600 52.1965
48.9700 54.6730
48.9800 56.4105
48.9900 57.2260
49.0000 66.0102
49.0100 43.2032
49.0200 56.6819
49.0300 61.3803
49.0400 60.2876
49.0500 63.5564
49.0600 62.4928
49.0700 59.3987
49.0800 72.1243
49.0900 63.5791
49.1000 59.3608
49.1100 66.6605
49.1200 62.2522
49.1300 62.5587
49.1400 61.6110
49.1500 58.9506
49.1600 54.7565
49.1700 67.4481
49.1800 55.3382
49.1900 57.1335
49.2000 56.8105
49.2100 68.6009
49.2200 75.8916
49.2300 62.0752
49.2400 69.7126
49.2500 57.2714
49.2600 63.5972
49.2700 63.4139
49.2800 50.2747
49.2900 63.2014
49.3000 55.0962
49.3100 62.3449
49.3200 60.4746
49.3300 58.2341
49.3400 56.3086
49.3500 54.2326
49.3600 69.5704
49.3700 67.4502
49.3800 84.6776
49.3900 62.9955
49.4000 47.8022
49.4100 59.7423
49.4200 63.9477
49.4300 65.3725
49.4400 65.6579
49.4500 69.2845
49.4600 63.8092
49.4700 48.1506
49.4800 50.9314
49.4900 62.9248
49.5000 59.7234
49.5100 56.8321
49.5200 61.0169
49.5300 42.7527
49.5400 59.3395
49.5500 45.7971
49.5600 58.3735
49.5700 72.2163
49.5800 66.8522
49.5900 53.7998
49.6000 58.7279
49.6100 53.8005
49.6200 48.1382
49.6300 59.7687
49.6400 61.4164
49.6500 49.8178
49.6600 57.9018
49.6700 49.9249
49.6800 61.1605
49.6900 76.6851
49.7000 67.5487
49.7100 64.7202
49.7200 61.3443
49.7300 60.4993
49.7400 57.8192
49.7500 52.0233
49.7600 46.4405
49.7700 55.4765
49.7800 70.1139
49.7900 70.9006
49.8000 61.4578
49.8100 57.9033
49.8200 59.6945
49.8300 50.9411
49.8400 60.5054
49.8500 59.2568
49.8600 60.3591
49.8700 52.8398
49.8800 62.1038
49.8900 69.1286
49.9000 49.9636
49.9100 51.5653
49.9200 54.4543
49.9300 78.4735
49.9400 68.0637
49.9500 59.9987
49.9600 49.7982
49.9700 41.9027
49.9800 55.7127
49.9900 52.6316
50.0000 55.0793
50.0100 44.1512
50.0200 57.6813
50.0300 68.1105
50.0400 51.2546
50.0500 49.1481
50.0600 59.3972
50.0700 67.5754
50.0800 51.5234
50.0900 38.3914
50.1000 76.5672
50.1100 76.1659
50.1200 54.9629
50.1300 61.1465
50.1400 58.9877
50.1500 67.9164
50.1600 49.3791
50.1700 64.6508
50.1800 56.1122
50.1900 68.3023
50.2000 73.0109
50.2100 59.3714
50.2200 56.5933
50.2300 56.4357
50.2400 61.5256
50.2500 64.8944
50.2600 61.4781
50.2700 55.4570
50.2800 63.1316
50.2900 62.6569
50.3000 58.0436
50.3100 54.8402
50.3200 71.1323
50.3300 62.6660
50.3400 74.1876
50.3500 58.2802
50.3600 57.8056
50.3700 60.2092
50.3800 60.0255
50.3900 60.5379
50.4000 60.0191
50.4100 57.9991
50.4200 55.2835
50.4300 59.4544
50.4400 60.5997
50.4500 62.8077
50.4600 59.5756
50.4700 56.2578
50.4800 58.9040
50.4900 47.4133
50.5000 57.0789
50.5100 48.9375
50.5200 56.3247
50.5300 58.5443
50.5400 57.7877
50.5500 52.7422
50.5600 47.0089
50.5700 67.0466
50.5800 48.7966
50.5900 52.8680
50.6000 63.7978
50.6100 84.2774
50.6200 59.4175
50.6300 54.9618
50.6400 68.3784
50.6500 53.0431
50.6600 57.5237
50.6700 57.6127
50.6800 58.3288
50.6900 56.8270
50.7000 66.1695
50.7100 66.6894
50.7200 50.5164
50.7300 65.3748
50.7400 56.7938
50.7500 62.3832
50.7600 63.4078
50.7700 61.1323
50.7800 70.6279
50.7900 59.0046
50.8000 61.5887
50.8100 67.2013
50.8200 71.3967
50.8300 75.2249
50.8400 77.5888
50.8500 56.3565
50.8600 77.9407
50.8700 54.0365
50.8800 58.7215
50.8900 48.7352
50.9000 62.5296
50.9100 51.8440
50.9200 60.2950
50.9300 55.0171
50.9400 59.9934
50.9500 56.0008
50.9600 52.1749
50.9700 59.3840
50.9800 51.4644
50.9900 48.1570
51.0000 64.0019
51.0100 75.2510
51.0200 77.3487
51.0300 63.0024
51.0400 55.9315
51.0500 49.4945
51.0600 58.0072
51.0700 54.5611
51.0800 66.5721
51.0900 62.2800
51.1000 66.9118
51.1100 58.5897
51.1200 66.8823
51.1300 55.3659
51.1400 45.5763
51.1500 55.4513
51.1600 61.5925
51.1700 67.6743
51.1800 57.3765
51.1900 46.5368
51.2000 64.2043
51.2100 63.7347
51.2200 58.2630
51.2300 60.2552
51.2400 57.3413
51.2500 53.8027
51.2600 59.3325
51.2700 58.5822
51.2800 60.7121
51.2900 47.3643
51.3000 71.2659
51.3100 52.3575
51.3200 52.1252
51.3300 56.1428
51.3400 56.0676
51.3500 67.4357
51.3600 44.4363
51.3700 57.5193
51.3800 65.3729
51.3900 61.4884
51.4000 65.5957
51.4100 48.3238
51.4200 53.0596
51.4300 46.7386
51.4400 53.3940
51.4500 63.5267
51.4600 56.3699
51.4700 52.4032
51.4800 59.2975
51.4900 51.0291
51.5000 56.2201
51.5100 56.2556
51.5200 61.4061
51.5300 56.2190
51.5400 71.6249
51.5500 51.9125
51.5600 60.1893
51.5700 52.6072
51.5800 65.9829
51.5900 47.0906
51.6000 78.5099
51.6100 61.4963
51.6200 67.9093
51.6300 55.7356
