#Collected Data-7
#Intensity_unit=counts
#Attenuator_coefficient=1.000000
40.0000 21.4563
40.0100 18.3129
40.0200 17.5600
40.0300 16.4494
40.0400 23.7682
40.0500 16.9844
40.0600 24.1899
40.0700 17.2716
40.0800 19.8612
40.0900 21.8047
40.1000 21.9213
40.1100 21.6550
40.1200 19.3597
40.1300 17.1114
40.1400 18.3337
40.1500 14.0764
40.1600 15.1451
40.1700 12.2134
40.1800 19.2000
40.1900 16.0320
40.2000 16.5422
40.2100 16.1705
40.2200 16.2530
40.2300 18.1022
40.2400 17.9273
40.2500 17.8986
40.2600 19.3517
40.2700 16.8910
40.2800 21.0327
40.2900 21.7295
40.3000 17.5499
40.3100 19.8304
40.3200 15.2897
40.3300 25.7617
40.3400 19.9010
40.3500 19.3220
40.3600 15.3426
40.3700 21.6205
40.3800 16.9212
40.3900 14.5796
40.4000 12.5983
40.4100 10.5109
40.4200 14.7188
40.4300 12.2709
40.4400 12.4054
40.4500 19.7649
40.4600 17.9890
40.4700 19.6051
40.4800 14.5765
40.4900 30.1619
40.5000 13.0288
40.5100 14.4675
40.5200 15.2298
40.5300 11.7196
40.5400 12.4205
40.5500 21.2056
40.5600 11.8831
40.5700 14.9830
40.5800 16.6418
40.5900 22.8031
40.6000 17.6081
40.6100 10.5830
40.6200 15.8482
40.6300 19.2573
40.6400 16.8611
40.6500 23.1528
40.6600 18.2801
40.6700 10.1235
40.6800 16.1417
40.6900 17.9583
40.7000 19.6183
40.7100 10.9671
40.7200 11.1225
40.7300 14.5633
40.7400 12.2820
40.7500 12.3374
40.7600 16.0699
40.7700 6.7198
40.7800 13.7466
40.7900 28.8142
40.8000 18.7002
40.8100 12.7716
40.8200 18.1121
40.8300 15.7319
40.8400 16.3018
40.8500 19.9640
40.8600 15.6790
40.8700 16.2426
40.8800 21.2238
40.8900 26.1065
40.9000 19.7370
40.9100 15.2605
40.9200 14.7753
40.9300 11.7156
40.9400 12.7283
40.9500 12.3366
40.9600 14.8290
40.9700 19.9901
40.9800 16.6809
40.9900 18.9658
41.0000 14.5940
41.0100 15.4529
41.0200 24.1400
41.0300 17.6381
41.0400 12.9903
41.0500 17.4096
41.0600 14.5081
41.0700 25.5517
41.0800 18.6638
41.0900 12.1850
41.1000 18.6234
41.1100 15.7701
41.1200 19.7842
41.1300 14.9017
41.1400 14.3567
41.1500 17.4146
41.1600 22.2668
41.1700 12.7936
41.1800 12.5792
41.1900 12.0474
41.2000 16.8963
41.2100 22.9955
41.2200 11.7730
41.2300 11.7392
41.2400 23.3362
41.2500 23.6517
41.2600 19.8840
41.2700 16.2925
41.2800 14.7267
41.2900 13.3574
41.3000 9.2628
41.3100 22.2833
41.3200 14.8925
41.3300 13.2231
41.3400 15.3926
41.3500 18.8051
41.3600 23.8230
41.3700 15.9123
41.3800 18.2448
41.3900 21.0254
41.4000 12.0565
41.4100 15.5906
41.4200 17.1314
41.4300 16.4662
41.4400 25.7482
41.4500 12.5465
41.4600 13.1728
41.4700 17.8068
41.4800 12.5208
41.4900 11.6840
41.5000 11.9252
41.5100 21.1003
41.5200 12.3626
41.5300 11.6894
41.5400 16.0091
41.5500 24.0580
41.5600 17.9681
41.5700 26.7763
41.5800 21.0113
41.5900 21.1153
41.6000 20.0689
41.6100 13.3688
41.6200 19.2485
41.6300 14.2872
41.6400 25.0420
41.6500 21.7595
41.6600 27.3540
41.6700 21.3275
41.6800 24.9277
41.6900 16.7960
41.7000 19.6146
41.7100 16.6293
41.7200 13.2857
41.7300 12.4202
41.7400 18.5901
41.7500 15.2844
41.7600 18.1953
41.7700 12.6926
41.7800 21.9566
41.7900 18.2817
41.8000 16.6692
41.8100 16.6049
41.8200 20.8510
41.8300 12.9829
41.8400 20.9122
41.8500 13.2279
41.8600 14.0164
41.8700 16.4287
41.8800 16.4377
41.8900 13.6232
41.9000 17.7160
41.9100 16.2828
41.9200 11.0250
41.9300 14.3714
41.9400 18.0982
41.9500 20.5811
41.9600 10.5455
41.9700 9.4721
41.9800 18.8497
41.9900 16.3748
42.0000 18.0884
42.0100 15.5183
42.0200 26.8615
42.0300 22.6691
42.0400 21.6808
42.0500 15.1087
42.0600 17.1123
42.0700 20.5045
42.0800 17.6713
42.0900 13.6817
42.1000 21.3375
42.1100 13.9273
42.1200 18.1476
42.1300 22.3123
42.1400 16.5963
42.1500 12.8409
42.1600 24.1388
42.1700 22.0777
42.1800 15.0962
42.1900 20.0776
42.2000 15.1852
42.2100 16.7403
42.2200 16.8892
42.2300 19.7809
42.2400 20.2014
42.2500 9.1150
42.2600 21.6718
42.2700 20.0792
42.2800 17.0442
42.2900 12.6009
42.3000 17.3788
42.3100 16.9713
42.3200 19.6928
42.3300 20.1956
42.3400 16.6736
42.3500 13.8721
42.3600 11.6816
42.3700 15.8202
42.3800 21.5522
42.3900 19.5579
42.4000 15.1178
42.4100 17.9886
42.4200 14.4209
42.4300 9.9214
42.4400 19.0123
42.4500 19.4710
42.4600 18.4003
42.4700 19.6354
42.4800 15.0504
42.4900 26.3325
42.5000 16.5683
42.5100 16.2927
42.5200 21.1747
42.5300 26.4681
42.5400 18.7274
42.5500 18.1817
42.5600 20.8806
42.5700 13.3768
42.5800 18.9049
42.5900 18.7712
42.6000 13.2161
42.6100 11.4080
42.6200 16.9688
42.6300 17.1349
42.6400 15.2746
42.6500 23.5317
42.6600 18.3637
42.6700 13.8005
42.6800 11.1909
42.6900 16.2596
42.7000 20.9036
42.7100 23.1970
42.7200 12.4947
42.7300 14.0175
42.7400 17.8830
42.7500 20.3193
42.7600 15.9348
42.7700 6.9705
42.7800 13.4078
42.7900 18.9262
42.8000 16.6850
42.8100 16.8122
42.8200 18.0902
42.8300 14.6930
42.8400 11.1785
42.8500 12.0408
42.8600 14.2831
42.8700 13.0260
42.8800 13.8683
42.8900 11.4446
42.9000 15.0034
42.9100 16.3385
42.9200 25.2154
42.9300 15.1913
42.9400 19.9782
42.9500 15.1962
42.9600 16.7770
42.9700 15.4859
42.9800 11.0994
42.9900 16.8671
43.0000 13.5699
43.0100 17.2045
43.0200 17.5033
43.0300 15.2186
43.0400 26.7129
43.0500 14.7874
43.0600 26.2713
43.0700 13.6115
43.0800 15.0819
43.0900 15.7814
43.1000 19.8019
43.1100 11.3648
43.1200 20.4990
43.1300 21.1649
43.1400 20.6457
43.1500 14.3251
43.1600 11.6083
43.1700 18.5395
43.1800 19.6371
43.1900 26.5585
43.2000 17.6899
43.2100 13.9128
43.2200 10.3142
43.2300 15.3360
43.2400 19.6526
43.2500 25.3810
43.2600 11.1795
43.2700 18.6929
43.2800 16.1149
43.2900 19.9985
43.3000 17.2035
43.3100 15.3439
43.3200 13.7130
43.3300 21.1328
43.3400 15.5724
43.3500 17.9421
43.3600 13.5402
43.3700 12.0319
43.3800 12.1554
43.3900 13.6250
43.4000 19.8088
43.4100 21.3224
43.4200 14.0404
43.4300 21.7936
43.4400 14.9709
43.4500 17.1708
43.4600 19.8926
43.4700 16.5723
43.4800 20.0916
43.4900 20.1016
43.5000 15.0603
43.5100 14.6002
43.5200 10.3692
43.5300 18.9817
43.5400 26.2265
43.5500 21.9801
43.5600 14.0508
43.5700 14.1741
43.5800 8.9205
43.5900 16.3390
43.6000 17.0493
43.6100 13.4899
43.6200 15.5577
43.6300 10.3667
43.6400 12.4044
43.6500 14.2238
43.6600 24.7347
43.6700 10.7143
43.6800 16.5135
43.6900 15.7824
43.7000 14.0312
43.7100 11.5297
43.7200 17.8542
43.7300 14.2212
43.7400 19.1153
43.7500 11.3698
43.7600 25.3480
43.7700 16.2842
43.7800 15.5860
43.7900 11.7114
43.8000 16.3214
43.8100 14.7365
43.8200 18.3542
43.8300 21.1096
43.8400 15.7432
43.8500 9.6461
43.8600 22.3264
43.8700 19.0052
43.8800 22.0015
43.8900 14.0029
43.9000 16.9292
43.9100 18.2617
43.9200 18.9892
43.9300 16.1672
43.9400 16.7437
43.9500 19.2774
43.9600 14.9431
43.9700 15.0330
43.9800 9.6807
43.9900 11.6716
44.0000 21.6992
44.0100 15.7929
44.0200 16.9544
44.0300 11.8505
44.0400 15.4487
44.0500 17.6273
44.0600 20.4277
44.0700 24.0581
44.0800 20.5359
44.0900 21.0987
44.1000 17.2356
44.1100 22.4963
44.1200 20.0967
44.1300 23.6271
44.1400 20.7217
44.1500 18.5059
44.1600 27.9841
44.1700 22.2895
44.1800 25.2400
44.1900 32.8182
44.2000 31.8700
44.2100 37.9561
44.2200 28.9835
44.2300 30.9139
44.2400 33.8783
44.2500 33.2550
44.2600 41.0459
44.2700 34.9411
44.2800 39.3212
44.2900 36.8083
44.3000 37.8658
44.3100 48.7105
44.3200 49.8548
44.3300 54.9921
44.3400 62.0536
44.3500 65.5724
44.3600 102.9337
44.3700 96.5316
44.3800 120.7869
44.3900 158.9111
44.4000 201.4812
44.4100 232.9578
44.4200 287.5522
44.4300 348.5644
44.4400 377.9503
44.4500 506.7820
44.4600 556.5588
44.4700 669.4899
44.4800 707.6628
44.4900 760.7880
44.5000 866.3818
44.5100 889.0396
44.5200 915.8279
44.5300 896.7422
44.5400 873.2139
44.5500 846.4179
44.5600 836.3561
44.5700 772.8732
44.5800 729.9175
44.5900 642.4152
44.6000 507.3801
44.6100 456.5685
44.6200 394.6257
44.6300 312.0446
44.6400 244.9735
44.6500 197.4722
44.6600 188.0529
44.6700 147.4906
44.6800 129.5509
44.6900 103.8372
44.7000 98.5819
44.7100 83.4777
44.7200 60.9381
44.7300 51.1963
44.7400 53.3215
44.7500 49.0103
44.7600 34.5446
44.7700 33.5690
44.7800 38.9583
44.7900 23.6746
44.8000 35.3767
44.8100 20.6880
44.8200 29.8090
44.8300 16.8746
44.8400 20.9521
44.8500 29.5729
44.8600 27.6316
44.8700 15.5375
44.8800 22.3078
44.8900 18.1119
44.9000 20.9794
44.9100 29.4105
44.9200 22.1633
44.9300 19.7561
44.9400 23.5757
44.9500 13.4782
44.9600 18.6125
44.9700 17.4459
44.9800 11.8053
44.9900 21.7693
45.0000 24.6528
45.0100 15.4207
45.0200 17.8478
45.0300 17.6311
45.0400 14.1621
45.0500 14.5894
45.0600 18.6439
45.0700 20.0926
45.0800 16.2669
45.0900 21.3275
45.1000 19.9612
45.1100 7.3954
45.1200 19.3059
45.1300 14.1992
45.1400 12.1454
45.1500 15.9172
45.1600 26.2292
45.1700 21.0347
45.1800 19.2970
45.1900 15.1133
45.2000 13.4719
45.2100 15.4012
45.2200 16.9150
45.2300 20.3791
45.2400 19.0541
45.2500 14.0112
45.2600 25.0917
45.2700 25.9737
45.2800 17.9712
45.2900 13.8798
45.3000 15.4433
45.3100 18.1463
45.3200 20.1562
45.3300 10.3974
45.3400 23.2287
45.3500 22.5021
45.3600 20.6561
45.3700 19.1695
45.3800 17.8356
45.3900 15.7683
45.4000 12.7081
45.4100 18.9174
45.4200 16.7457
45.4300 21.4801
45.4400 14.5228
45.4500 17.8744
45.4600 11.8108
45.4700 16.1191
45.4800 13.5228
45.4900 17.3022
45.5000 16.6300
45.5100 15.0139
45.5200 16.9423
45.5300 9.3713
45.5400 16.2525
45.5500 19.2181
45.5600 15.6974
45.5700 23.8583
45.5800 16.9924
45.5900 13.1121
45.6000 16.1672
45.6100 12.9953
45.6200 15.7263
45.6300 15.9782
45.6400 18.3243
45.6500 15.9634
45.6600 13.8270
45.6700 13.7326
45.6800 10.4855
45.6900 12.4571
45.7000 11.0212
45.7100 16.9005
45.7200 15.5732
45.7300 14.5646
45.7400 20.1087
45.7500 18.7298
45.7600 15.4008
45.7700 14.5828
45.7800 6.9383
45.7900 21.1001
45.8000 15.2989
45.8100 8.7779
45.8200 12.4334
45.8300 14.9966
45.8400 18.1471
45.8500 14.6528
45.8600 15.7396
45.8700 22.5074
45.8800 20.7123
45.8900 18.4707
45.9000 18.0704
45.9100 11.6112
45.9200 13.8293
45.9300 15.2355
45.9400 16.6107
45.9500 18.6587
45.9600 19.4005
45.9700 15.0491
45.9800 17.5786
45.9900 11.3318
46.0000 12.9607
46.0100 18.5598
46.0200 14.6997
46.0300 15.4056
46.0400 15.7215
46.0500 25.0927
46.0600 20.8310
46.0700 17.9805
46.0800 11.3479
46.0900 17.7555
46.1000 18.4778
46.1100 14.4201
46.1200 17.2504
46.1300 16.1102
46.1400 14.6496
46.1500 13.6679
46.1600 20.1909
46.1700 13.1739
46.1800 16.1051
46.1900 7.5708
46.2000 12.6124
46.2100 17.2930
46.2200 11.9783
46.2300 16.0157
46.2400 20.0086
46.2500 17.8768
46.2600 18.9812
46.2700 10.4708
46.2800 23.0507
46.2900 13.1526
46.3000 15.1830
46.3100 15.1475
46.3200 20.4338
46.3300 13.2143
46.3400 13.9067
46.3500 12.0357
46.3600 12.9434
46.3700 19.3616
46.3800 14.7445
46.3900 15.0333
46.4000 18.4866
46.4100 12.7015
46.4200 16.7203
46.4300 24.2704
46.4400 18.9357
46.4500 12.4695
46.4600 15.4024
46.4700 13.3071
46.4800 22.7651
46.4900 15.3109
46.5000 20.7741
46.5100 16.9702
46.5200 12.7171
46.5300 15.1095
46.5400 21.0389
46.5500 14.4564
46.5600 12.9864
46.5700 9.1796
46.5800 8.2667
46.5900 15.2549
46.6000 10.3629
46.6100 9.4015
46.6200 17.5078
46.6300 14.6171
46.6400 17.0304
46.6500 7.8956
46.6600 12.8025
46.6700 12.5956
46.6800 12.1458
46.6900 16.3742
46.7000 12.6676
46.7100 10.6740
46.7200 12.0549
46.7300 13.5371
46.7400 9.9261
46.7500 3.6330
46.7600 9.0449
46.7700 15.0322
46.7800 17.6104
46.7900 11.3008
46.8000 15.1022
46.8100 16.0503
46.8200 13.4666
46.8300 13.4584
46.8400 20.0421
46.8500 17.4300
46.8600 22.2862
46.8700 12.7152
46.8800 25.5928
46.8900 15.3076
46.9000 22.0298
46.9100 15.5530
46.9200 23.0717
46.9300 10.7014
46.9400 20.4725
46.9500 16.2548
46.9600 19.9808
46.9700 18.2174
46.9800 13.0941
46.9900 21.9113
47.0000 13.8003
47.0100 11.9671
47.0200 9.6884
47.0300 16.8680
47.0400 13.9723
47.0500 23.1047
47.0600 15.2608
47.0700 16.6316
47.0800 13.3308
47.0900 16.4825
47.1000 14.2319
47.1100 11.8159
47.1200 13.9345
47.1300 19.8018
47.1400 19.8657
47.1500 14.7116
47.1600 16.8965
47.1700 12.1441
47.1800 22.0647
47.1900 13.2240
47.2000 23.8269
47.2100 21.3412
47.2200 13.7013
47.2300 18.8832
47.2400 11.0349
47.2500 13.5332
47.2600 20.7120
47.2700 26.3816
47.2800 13.8259
47.2900 13.0133
47.3000 14.8686
47.3100 11.2049
47.3200 11.1661
47.3300 10.1252
47.3400 12.2977
47.3500 12.8558
47.3600 11.5537
47.3700 19.3336
47.3800 18.4500
47.3900 14.5947
47.4000 11.9476
47.4100 16.3383
47.4200 16.5250
47.4300 11.1162
47.4400 14.3867
47.4500 17.6245
47.4600 11.8217
47.4700 25.1115
47.4800 19.2693
47.4900 10.1982
47.5000 10.8406
47.5100 13.2772
47.5200 19.8083
47.5300 16.6322
47.5400 21.5673
47.5500 17.0351
47.5600 15.1137
47.5700 21.3732
47.5800 18.0924
47.5900 16.8338
47.6000 20.8745
47.6100 22.6617
47.6200 23.8876
47.6300 14.9986
47.6400 13.7123
47.6500 21.1920
47.6600 19.9509
47.6700 16.3024
47.6800 11.7507
47.6900 12.5195
47.7000 13.4205
47.7100 16.0997
47.7200 13.1348
47.7300 21.0484
47.7400 19.7579
47.7500 23.1006
47.7600 17.1574
47.7700 24.4831
47.7800 14.3170
47.7900 15.4678
47.8000 14.3405
47.8100 12.4090
47.8200 13.2143
47.8300 13.9105
47.8400 13.1396
47.8500 15.4776
47.8600 18.6528
47.8700 14.0818
47.8800 18.0035
47.8900 10.8500
47.9000 14.8320
47.9100 20.0605
47.9200 8.2725
47.9300 17.6603
47.9400 8.7760
47.9500 17.2295
47.9600 16.1142
47.9700 14.3664
47.9800 18.4316
47.9900 6.4487
48.0000 13.9203
48.0100 14.4978
48.0200 18.8703
48.0300 20.2837
48.0400 17.3290
48.0500 11.3107
48.0600 13.2707
48.0700 14.6875
48.0800 18.7357
48.0900 16.7030
48.1000 19.3936
48.1100 27.6584
48.1200 15.1820
48.1300 15.7152
48.1400 11.4940
48.1500 15.0857
48.1600 23.2553
48.1700 15.3446
48.1800 17.4305
48.1900 13.3558
48.2000 18.9641
48.2100 15.2741
48.2200 10.3579
48.2300 15.3017
48.2400 12.9246
48.2500 14.8235
48.2600 17.2891
48.2700 16.9920
48.2800 14.9845
48.2900 15.2090
48.3000 15.6946
48.3100 9.5617
48.3200 19.4240
48.3300 25.8899
48.3400 23.3693
48.3500 17.3806
48.3600 15.7226
48.3700 14.3232
48.3800 8.7114
48.3900 12.2301
48.4000 16.8827
48.4100 19.4099
48.4200 11.1291
48.4300 14.4964
48.4400 11.9994
48.4500 13.7609
48.4600 21.1670
48.4700 19.0166
48.4800 14.7357
48.4900 10.0910
48.5000 15.6873
48.5100 15.2068
48.5200 14.8136
48.5300 15.9438
48.5400 13.7389
48.5500 19.3650
48.5600 13.2786
48.5700 16.5639
48.5800 14.2053
48.5900 17.8271
48.6000 20.6425
48.6100 17.1243
48.6200 24.7623
48.6300 14.0635
48.6400 31.6873
48.6500 15.1299
48.6600 20.6349
48.6700 16.2236
48.6800 16.3073
48.6900 18.5726
48.7000 15.1960
48.7100 16.1701
48.7200 14.5641
48.7300 18.1779
48.7400 17.8265
48.7500 12.4897
48.7600 11.9815
48.7700 18.7564
48.7800 17.2158
48.7900 14.2760
48.8000 17.8359
48.8100 23.0266
48.8200 11.4552
48.8300 13.5675
48.8400 12.6513
48.8500 12.7498
48.8600 12.3538
48.8700 15.5103
48.8800 17.7529
48.8900 16.2549
48.9000 14.9083
48.9100 18.1100
48.9200 13.1441
48.9300 17.5954
48.9400 12.0425
48.9500 17.0985
48.9600 14.9131
48.9700 12.5211
48.9800 19.4621
48.9900 15.1961
49.0000 14.3458
49.0100 13.1855
49.0200 17.3712
49.0300 21.1929
49.0400 13.3790
49.0500 16.6961
49.0600 15.1339
49.0700 11.1998
49.0800 12.8136
49.0900 18.8307
49.1000 15.6041
49.1100 10.0549
49.1200 13.6289
49.1300 13.7051
49.1400 19.3828
49.1500 18.3546
49.1600 6.9392
49.1700 12.2676
49.1800 12.2030
49.1900 15.7060
49.2000 17.4083
49.2100 11.8880
49.2200 16.7439
49.2300 12.2158
49.2400 18.9563
49.2500 11.7575
49.2600 18.6426
49.2700 9.4460
49.2800 16.4905
49.2900 13.0816
49.3000 18.7489
49.3100 12.3562
49.3200 14.0000
49.3300 13.5762
49.3400 19.6706
49.3500 11.1954
49.3600 15.1478
49.3700 12.5486
49.3800 16.8110
49.3900 15.7687
49.4000 10.1357
49.4100 14.4730
49.4200 9.9036
49.4300 11.7268
49.4400 21.1636
49.4500 8.0557
49.4600 14.4165
49.4700 17.3820
49.4800 13.8280
49.4900 14.7783
49.5000 14.1928
49.5100 13.2236
49.5200 13.2083
49.5300 16.9081
49.5400 16.6592
49.5500 13.8312
49.5600 12.3774
49.5700 11.9386
49.5800 11.9251
49.5900 20.2667
49.6000 15.9174
49.6100 14.8575
49.6200 12.3008
49.6300 11.8968
49.6400 18.7474
49.6500 21.4355
49.6600 20.9748
49.6700 7.6188
49.6800 18.5170
49.6900 15.5088
49.7000 17.7258
49.7100 14.7437
49.7200 16.9852
49.7300 17.2729
49.7400 18.5331
49.7500 25.4334
49.7600 19.2802
49.7700 16.6357
49.7800 7.0683
49.7900 18.4304
49.8000 13.6994
49.8100 13.3833
49.8200 13.6498
49.8300 19.2773
49.8400 12.9444
49.8500 19.6199
49.8600 17.0908
49.8700 16.1385
49.8800 20.7249
49.8900 11.9838
49.9000 16.0546
49.9100 12.8962
49.9200 16.3350
49.9300 20.0418
49.9400 15.4504
49.9500 16.6111
49.9600 10.4864
49.9700 13.5446
49.9800 15.2309
49.9900 21.7652
50.0000 7.2947
50.0100 10.7064
50.0200 10.7384
50.0300 18.8282
50.0400 13.7258
50.0500 18.9755
50.0600 17.5523
50.0700 12.3586
50.0800 9.9810
50.0900 15.2569
50.1000 14.8498
50.1100 16.0385
50.1200 19.5607
50.1300 16.8562
50.1400 12.0900
50.1500 10.2412
50.1600 15.1086
50.1700 18.5223
50.1800 17.1943
50.1900 20.2331
50.2000 14.5593
50.2100 13.5192
50.2200 12.5462
50.2300 16.8244
50.2400 8.6111
50.2500 19.3392
50.2600 14.1390
50.2700 14.4341
50.2800 16.9677
50.2900 14.4970
50.3000 16.8592
50.3100 18.5966
50.3200 12.4914
50.3300 19.0080
50.3400 19.3417
50.3500 16.6923
50.3600 13.2829
50.3700 16.8784
50.3800 12.5057
50.3900 21.1407
50.4000 13.5328
50.4100 6.8117
50.4200 16.2823
50.4300 12.4488
50.4400 14.4949
50.4500 13.9885
50.4600 14.7766
50.4700 11.5303
50.4800 13.9121
50.4900 19.0926
50.5000 16.3944
50.5100 13.7090
50.5200 20.7830
50.5300 24.3128
50.5400 8.3957
50.5500 11.6336
50.5600 11.4689
50.5700 17.4404
50.5800 16.2194
50.5900 24.3045
50.6000 17.8280
50.6100 14.2075
50.6200 20.2980
50.6300 7.2533
50.6400 14.2436
50.6500 12.6698
50.6600 19.0458
50.6700 12.2401
50.6800 15.3890
50.6900 9.3261
50.7000 10.1824
50.7100 14.2899
50.7200 15.1012
50.7300 12.6392
50.7400 11.8048
50.7500 15.7276
50.7600 14.2547
50.7700 9.7062
50.7800 11.9622
50.7900 10.7463
50.8000 15.1623
50.8100 21.5638
50.8200 12.5606
50.8300 13.0359
50.8400 11.8455
50.8500 11.9041
50.8600 14.7853
50.8700 16.2070
50.8800 11.4109
50.8900 16.2507
50.9000 21.2237
50.9100 14.3741
50.9200 13.5678
50.9300 14.2578
50.9400 13.9913
50.9500 17.6956
50.9600 10.2976
50.9700 16.6930
50.9800 16.1079
50.9900 14.3177
51.0000 13.0160
51.0100 12.0451
51.0200 16.7785
51.0300 17.0227
51.0400 14.9392
51.0500 16.4263
51.0600 10.7759
51.0700 31.2916
51.0800 19.0043
51.0900 15.2768
51.1000 12.2567
51.1100 9.1770
51.1200 10.8272
51.1300 18.0614
51.1400 20.0211
51.1500 19.7455
51.1600 13.7172
51.1700 13.9019
51.1800 12.4331
51.1900 15.4120
51.2000 14.1694
51.2100 22.0682
51.2200 14.6134
51.2300 12.7188
51.2400 18.5203
51.2500 13.9430
51.2600 12.8248
51.2700 25.1758
51.2800 16.8388
51.2900 12.9390
51.3000 11.5842
51.3100 17.8533
51.3200 19.7637
51.3300 18.7676
51.3400 12.4866
51.3500 14.5102
51.3600 15.7262
51.3700 17.8875
51.3800 14.5361
51.3900 19.8901
51.4000 21.0834
51.4100 21.0405
51.4200 23.2468
51.4300 13.1210
51.4400 13.8131
51.4500 14.1384
51.4600 18.1434
51.4700 19.1697
51.4800 11.2984
51.4900 19.2320
51.5000 10.0456
51.5100 19.4273
51.5200 13.9390
51.5300 21.0426
51.5400 16.6036
51.5500 18.7140
51.5600 18.9429
51.5700 15.7798
51.5800 16.3532
51.5900 8.2678
51.6000 13.2673
51.6100 16.6062
51.6200 16.3236
51.6300 12.7617
51.6400 11.9683
51.6500 15.5108
51.6600 16.8827
51.6700 14.4924
51.6800 7.2426
51.6900 10.4424
51.7000 20.2723
51.7100 12.8552
