#Collected Data-120
#Intensity_unit=counts
#Attenuator_coefficient=1.000000
40.0000 51.4819
40.0100 55.4964
40.0200 41.7215
40.0300 66.7081
40.0400 47.3297
40.0500 58.7974
40.0600 50.5657
40.0700 63.7646
40.0800 66.9608
40.0900 51.6880
40.1000 54.3836
40.1100 46.1871
40.1200 46.8860
40.1300 46.9527
40.1400 39.4746
40.1500 43.3011
40.1600 58.8641
40.1700 50.4506
40.1800 52.5038
40.1900 50.8120
40.2000 39.7116
40.2100 46.6208
40.2200 44.9537
40.2300 48.2692
40.2400 47.1352
40.2500 41.7780
40.2600 37.8472
40.2700 42.7403
40.2800 52.5697
40.2900 52.8701
40.3000 61.0774
40.3100 44.8501
40.3200 51.0541
40.3300 32.4067
40.3400 42.4488
40.3500 39.9116
40.3600 45.4447
40.3700 47.6414
40.3800 40.8703
40.3900 53.2506
40.4000 54.4424
40.4100 47.8442
40.4200 54.3317
40.4300 53.3753
40.4400 63.6859
40.4500 46.6355
40.4600 42.6047
40.4700 55.8419
40.4800 67.5704
40.4900 42.6950
40.5000 39.7323
40.5100 43.9687
40.5200 52.2285
40.5300 53.0386
40.5400 45.9796
40.5500 41.7190
40.5600 40.3765
40.5700 48.2867
40.5800 48.1221
40.5900 46.6831
40.6000 48.3013
40.6100 43.1929
40.6200 45.3516
40.6300 44.1138
40.6400 39.8720
40.6500 45.9519
40.6600 49.9019
40.6700 42.6617
40.6800 51.4221
40.6900 61.7584
40.7000 47.7736
40.7100 51.1804
40.7200 55.6153
40.7300 45.4295
40.7400 29.6408
40.7500 43.7244
40.7600 62.5187
40.7700 55.8270
40.7800 46.2313
40.7900 34.4083
40.8000 60.5721
40.8100 51.2456
40.8200 54.5934
40.8300 46.0588
40.8400 46.1086
40.8500 49.2777
40.8600 53.6236
40.8700 53.1244
40.8800 62.2315
40.8900 57.5562
40.9000 50.4997
40.9100 43.1451
40.9200 53.7108
40.9300 47.4749
40.9400 54.1150
40.9500 55.5458
40.9600 52.9533
40.9700 44.0517
40.9800 39.5978
40.9900 46.2077
41.0000 40.5577
41.0100 55.2573
41.0200 58.9639
41.0300 60.1391
41.0400 54.9334
41.0500 43.1341
41.0600 50.8982
41.0700 52.6326
41.0800 46.6630
41.0900 39.9200
41.1000 60.7368
41.1100 35.9887
41.1200 44.9284
41.1300 57.0065
41.1400 46.0571
41.1500 55.7418
41.1600 58.0695
41.1700 54.0514
41.1800 40.7596
41.1900 44.7730
41.2000 58.7997
41.2100 48.3844
41.2200 32.3752
41.2300 49.5685
41.2400 42.5270
41.2500 43.1111
41.2600 49.7416
41.2700 51.4589
41.2800 46.2184
41.2900 61.1433
41.3000 46.1895
41.3100 57.5321
41.3200 60.9728
41.3300 53.4074
41.3400 58.6994
41.3500 45.5053
41.3600 50.3995
41.3700 47.7156
41.3800 48.5295
41.3900 42.1520
41.4000 56.5689
41.4100 44.2175
41.4200 53.1011
41.4300 55.8746
41.4400 38.1898
41.4500 51.4776
41.4600 45.4035
41.4700 43.6013
41.4800 53.4403
41.4900 48.2648
41.5000 57.9867
41.5100 50.2457
41.5200 42.9208
41.5300 48.2677
41.5400 41.2937
41.5500 46.1147
41.5600 48.4816
41.5700 60.3235
41.5800 56.9203
41.5900 48.1142
41.6000 48.3494
41.6100 58.9671
41.6200 48.3951
41.6300 55.2585
41.6400 55.6072
41.6500 40.9596
41.6600 51.8666
41.6700 50.3925
41.6800 58.6134
41.6900 54.3929
41.7000 48.1497
41.7100 66.2766
41.7200 61.8519
41.7300 57.1639
41.7400 43.7977
41.7500 53.2278
41.7600 53.3270
41.7700 46.4555
41.7800 55.4243
41.7900 60.0269
41.8000 54.1242
41.8100 51.6257
41.8200 67.1128
41.8300 70.1420
41.8400 45.0930
41.8500 48.7230
41.8600 56.9177
41.8700 49.5846
41.8800 42.3989
41.8900 58.6995
41.9000 55.4461
41.9100 52.4782
41.9200 49.8720
41.9300 59.9636
41.9400 54.2025
41.9500 57.0720
41.9600 50.3307
41.9700 59.3548
41.9800 48.6509
41.9900 64.0159
42.0000 57.2525
42.0100 50.2028
42.0200 39.2857
42.0300 54.2757
42.0400 59.9395
42.0500 52.6141
42.0600 42.4695
42.0700 69.1693
42.0800 65.6446
42.0900 65.4310
42.1000 57.8055
42.1100 58.5080
42.1200 62.1347
42.1300 64.4703
42.1400 64.2613
42.1500 65.3299
42.1600 65.8138
42.1700 59.3067
42.1800 53.2215
42.1900 73.1288
42.2000 69.9351
42.2100 60.1036
42.2200 57.6140
42.2300 67.5967
42.2400 57.4854
42.2500 58.2473
42.2600 47.1110
42.2700 63.4445
42.2800 54.3457
42.2900 69.5057
42.3000 60.0895
42.3100 66.5965
42.3200 59.1700
42.3300 51.2779
42.3400 57.0049
42.3500 69.5446
42.3600 65.2457
42.3700 57.9097
42.3800 61.5732
42.3900 57.2591
42.4000 56.2248
42.4100 59.5191
42.4200 59.9276
42.4300 69.0832
42.4400 60.4593
42.4500 66.2636
42.4600 69.3943
42.4700 48.6636
42.4800 57.9846
42.4900 58.7706
42.5000 76.7239
42.5100 69.3035
42.5200 62.7923
42.5300 66.8101
42.5400 58.2601
42.5500 63.3350
42.5600 61.0134
42.5700 66.1747
42.5800 61.1612
42.5900 57.8969
42.6000 64.0430
42.6100 68.7003
42.6200 71.5526
42.6300 67.8277
42.6400 49.6286
42.6500 53.3975
42.6600 54.9594
42.6700 75.3901
42.6800 54.1509
42.6900 57.4341
42.7000 67.1764
42.7100 75.6047
42.7200 58.8613
42.7300 57.9448
42.7400 59.2929
42.7500 55.5739
42.7600 58.9935
42.7700 55.3782
42.7800 62.0837
42.7900 62.6162
42.8000 59.9923
42.8100 68.2592
42.8200 58.9036
42.8300 61.7699
42.8400 58.7101
42.8500 58.1862
42.8600 55.2877
42.8700 59.7132
42.8800 74.4018
42.8900 65.7168
42.9000 46.7090
42.9100 76.2500
42.9200 54.1108
42.9300 68.2614
42.9400 78.8048
42.9500 58.8972
42.9600 68.0806
42.9700 72.0721
42.9800 57.1013
42.9900 58.4788
43.0000 58.0229
43.0100 68.3095
43.0200 59.4437
43.0300 63.8761
43.0400 63.1700
43.0500 54.2479
43.0600 60.2892
43.0700 68.9895
43.0800 74.6600
43.0900 64.5352
43.1000 71.0665
43.1100 67.3061
43.1200 57.5753
43.1300 71.4030
43.1400 57.0860
43.1500 76.9214
43.1600 66.6352
43.1700 55.0238
43.1800 62.4667
43.1900 74.0759
43.2000 54.1610
43.2100 66.9756
43.2200 70.4868
43.2300 78.3375
43.2400 65.8012
43.2500 55.8981
43.2600 77.2971
43.2700 71.9070
43.2800 57.7213
43.2900 86.8732
43.3000 67.9485
43.3100 78.7421
43.3200 68.8845
43.3300 67.5722
43.3400 58.8824
43.3500 48.5938
43.3600 71.7341
43.3700 69.9957
43.3800 61.4138
43.3900 75.1109
43.4000 62.4029
43.4100 75.8221
43.4200 60.6970
43.4300 74.5400
43.4400 76.3107
43.4500 55.5611
43.4600 54.4163
43.4700 55.9532
43.4800 60.5768
43.4900 69.7192
43.5000 73.2128
43.5100 72.3778
43.5200 63.1165
43.5300 49.4018
43.5400 81.8378
43.5500 72.8245
43.5600 70.5754
43.5700 57.4539
43.5800 67.6349
43.5900 64.8900
43.6000 63.7647
43.6100 65.3288
43.6200 79.7517
43.6300 62.0947
43.6400 68.1224
43.6500 68.5879
43.6600 79.0556
43.6700 71.5519
43.6800 64.7819
43.6900 73.0484
43.7000 64.5148
43.7100 78.6110
43.7200 79.3133
43.7300 58.6525
43.7400 53.7875
43.7500 63.5704
43.7600 59.8516
43.7700 61.9566
43.7800 78.5669
43.7900 85.6481
43.8000 66.8847
43.8100 72.2329
43.8200 62.8447
43.8300 66.4703
43.8400 69.8102
43.8500 62.9546
43.8600 86.8733
43.8700 70.7697
43.8800 72.5019
43.8900 64.1919
43.9000 84.1941
43.9100 71.2843
43.9200 69.1350
43.9300 62.5473
43.9400 76.0800
43.9500 69.2871
43.9600 78.1493
43.9700 74.5392
43.9800 67.1959
43.9900 73.7251
44.0000 66.6282
44.0100 56.7225
44.0200 57.7568
44.0300 54.3853
44.0400 54.6003
44.0500 75.6487
44.0600 67.7861
44.0700 59.0536
44.0800 61.2826
44.0900 66.3453
44.1000 64.0656
44.1100 75.5145
44.1200 80.6181
44.1300 61.1752
44.1400 74.1571
44.1500 80.4765
44.1600 75.6737
44.1700 65.8964
44.1800 57.4002
44.1900 74.5842
44.2000 59.3362
44.2100 83.8729
44.2200 75.7684
44.2300 77.5611
44.2400 75.6560
44.2500 64.8283
44.2600 59.1656
44.2700 67.6389
44.2800 65.9305
44.2900 67.1596
44.3000 63.9836
44.3100 76.1197
44.3200 84.7675
44.3300 79.6397
44.3400 70.3739
44.3500 77.3517
44.3600 79.4142
44.3700 72.0267
44.3800 76.3922
44.3900 67.8037
44.4000 68.3971
44.4100 75.3325
44.4200 62.0929
44.4300 67.1935
44.4400 47.5186
44.4500 75.8648
44.4600 76.3995
44.4700 62.8822
44.4800 67.4564
44.4900 63.1619
44.5000 66.1527
44.5100 58.3432
44.5200 66.7744
44.5300 83.3775
44.5400 87.8011
44.5500 79.7870
44.5600 74.3949
44.5700 62.8102
44.5800 69.8435
44.5900 76.3032
44.6000 74.2019
44.6100 60.3196
44.6200 75.5890
44.6300 61.9702
44.6400 61.3836
44.6500 60.3967
44.6600 70.9585
44.6700 76.3997
44.6800 61.4484
44.6900 51.0323
44.7000 77.1862
44.7100 77.0738
44.7200 73.8911
44.7300 68.7779
44.7400 73.6541
44.7500 73.7997
44.7600 69.2128
44.7700 59.8789
44.7800 68.7501
44.7900 65.3308
44.8000 75.0448
44.8100 71.2128
44.8200 60.5708
44.8300 60.5464
44.8400 78.7376
44.8500 69.2553
44.8600 75.7271
44.8700 69.9776
44.8800 59.3679
44.8900 85.0999
44.9000 68.6367
44.9100 63.5248
44.9200 59.1253
44.9300 72.8036
44.9400 68.1261
44.9500 58.9416
44.9600 67.3073
44.9700 74.2847
44.9800 75.0259
44.9900 69.6687
45.0000 76.7894
45.0100 56.3286
45.0200 66.3568
45.0300 66.5067
45.0400 69.1112
45.0500 56.1468
45.0600 54.9601
45.0700 63.6177
45.0800 72.5864
45.0900 76.0456
45.1000 69.8539
45.1100 74.7760
45.1200 66.3321
45.1300 62.0609
45.1400 74.4248
45.1500 66.7985
45.1600 73.5662
45.1700 72.0949
45.1800 74.4581
45.1900 76.6820
45.2000 67.6131
45.2100 58.2460
45.2200 73.8851
45.2300 79.7037
45.2400 66.7378
45.2500 56.0140
45.2600 64.3407
45.2700 57.2271
45.2800 74.0239
45.2900 71.5975
45.3000 73.2622
45.3100 74.7950
45.3200 78.6476
45.3300 64.8881
45.3400 71.0818
45.3500 67.6700
45.3600 75.5059
45.3700 65.6209
45.3800 64.2312
45.3900 68.7915
45.4000 54.2598
45.4100 64.7905
45.4200 70.7937
45.4300 64.0005
45.4400 57.0937
45.4500 51.9185
45.4600 60.2945
45.4700 70.7791
45.4800 79.3094
45.4900 65.3245
45.5000 62.3335
45.5100 76.7352
45.5200 67.8857
45.5300 71.8549
45.5400 68.6676
45.5500 71.2713
45.5600 66.4249
45.5700 60.4816
45.5800 65.8349
45.5900 58.3083
45.6000 61.8221
45.6100 52.9600
45.6200 64.0686
45.6300 60.6706
45.6400 59.7247
45.6500 72.3932
45.6600 73.0419
45.6700 68.3344
45.6800 76.9110
45.6900 61.6306
45.7000 62.1384
45.7100 65.7174
45.7200 71.1712
45.7300 72.7916
45.7400 63.9945
45.7500 64.5324
45.7600 53.4245
45.7700 64.4504
45.7800 56.9002
45.7900 56.4799
45.8000 55.0440
45.8100 60.6680
45.8200 60.6373
45.8300 65.0020
45.8400 70.1881
45.8500 65.3761
45.8600 71.2721
45.8700 59.8623
45.8800 47.2210
45.8900 57.6869
45.9000 63.8753
45.9100 47.1647
45.9200 53.7240
45.9300 53.3627
45.9400 56.9993
45.9500 57.6620
45.9600 71.8679
45.9700 55.9386
45.9800 62.5644
45.9900 67.8685
46.0000 58.1713
46.0100 57.7808
46.0200 54.6787
46.0300 51.8531
46.0400 61.5996
46.0500 57.8652
46.0600 71.3156
46.0700 69.3615
46.0800 66.8248
46.0900 58.3400
46.1000 57.7867
46.1100 49.7253
46.1200 72.3883
46.1300 72.5460
46.1400 59.0827
46.1500 53.2556
46.1600 48.6545
46.1700 75.3511
46.1800 66.4464
46.1900 46.2218
46.2000 56.6666
46.2100 72.6917
46.2200 53.8758
46.2300 45.0159
46.2400 60.3768
46.2500 55.8897
46.2600 55.3178
46.2700 56.1971
46.2800 56.9306
46.2900 48.1576
46.3000 69.5838
46.3100 53.3092
46.3200 58.5107
46.3300 69.9690
46.3400 55.1774
46.3500 55.2806
46.3600 65.4371
46.3700 56.6214
46.3800 62.3638
46.3900 56.9557
46.4000 70.0519
46.4100 53.8479
46.4200 48.9764
46.4300 52.3160
46.4400 59.8872
46.4500 55.9059
46.4600 53.6282
46.4700 55.3878
46.4800 46.9883
46.4900 45.3255
46.5000 60.2983
46.5100 57.5996
46.5200 49.9183
46.5300 54.1318
46.5400 60.9097
46.5500 53.4742
46.5600 70.9240
46.5700 59.3032
46.5800 54.7275
46.5900 57.7828
46.6000 54.3870
46.6100 63.8933
46.6200 61.4618
46.6300 60.0827
46.6400 50.3128
46.6500 52.6834
46.6600 56.9679
46.6700 62.7207
46.6800 58.7047
46.6900 61.0666
46.7000 64.0027
46.7100 52.0170
46.7200 53.8670
46.7300 58.4785
46.7400 58.1594
46.7500 55.8897
46.7600 54.1001
46.7700 48.8956
46.7800 53.3360
46.7900 39.7616
46.8000 46.7382
46.8100 57.3444
46.8200 53.0382
46.8300 56.9402
46.8400 61.4124
46.8500 53.1387
46.8600 51.9041
46.8700 61.7185
46.8800 59.9851
46.8900 58.5921
46.9000 52.4252
46.9100 51.4810
46.9200 50.4333
46.9300 51.6990
46.9400 51.1552
46.9500 47.8275
46.9600 47.2912
46.9700 37.7642
46.9800 45.5284
46.9900 48.5603
47.0000 48.4182
47.0100 56.2890
47.0200 52.3332
47.0300 56.5357
47.0400 44.7151
47.0500 50.2014
47.0600 63.1284
47.0700 55.6430
47.0800 51.4485
47.0900 48.3903
47.1000 50.4061
47.1100 47.8580
47.1200 63.8277
47.1300 50.3084
47.1400 47.3888
47.1500 40.7056
47.1600 46.0144
47.1700 56.4330
47.1800 51.9533
47.1900 69.0276
47.2000 54.1219
47.2100 57.5804
47.2200 49.8983
47.2300 52.2373
47.2400 51.8087
47.2500 45.7613
47.2600 48.2692
47.2700 53.9396
47.2800 34.3717
47.2900 50.6428
47.3000 47.4310
47.3100 45.4135
47.3200 52.2372
47.3300 48.5405
47.3400 47.7895
47.3500 49.2164
47.3600 50.5006
47.3700 53.0281
47.3800 58.1107
47.3900 40.8544
47.4000 49.7011
47.4100 55.0723
47.4200 58.2960
47.4300 46.5290
47.4400 58.7146
47.4500 44.5604
47.4600 52.8087
47.4700 50.9931
47.4800 46.9964
47.4900 39.6400
47.5000 39.6008
47.5100 50.6069
47.5200 55.0806
47.5300 58.3548
47.5400 43.8398
47.5500 57.2782
47.5600 61.2868
47.5700 47.6469
47.5800 39.5536
47.5900 45.4467
47.6000 49.8115
47.6100 55.7301
47.6200 53.1016
47.6300 46.5842
47.6400 56.7277
47.6500 48.0876
47.6600 49.5487
47.6700 37.7301
47.6800 59.9010
47.6900 40.6836
47.7000 47.9048
47.7100 38.0295
47.7200 50.1302
47.7300 45.9381
47.7400 54.0281
47.7500 52.1995
47.7600 47.0560
47.7700 45.7785
47.7800 60.9796
47.7900 53.4098
47.8000 51.5369
47.8100 53.9254
47.8200 43.7129
47.8300 46.6441
47.8400 50.0965
47.8500 62.3249
47.8600 51.6379
47.8700 32.8869
47.8800 45.2207
47.8900 44.0612
47.9000 48.4866
47.9100 41.5032
47.9200 55.8144
47.9300 50.0744
47.9400 71.4422
47.9500 47.7162
47.9600 46.4217
47.9700 47.0440
47.9800 48.5511
47.9900 54.0146
48.0000 44.5972
48.0100 39.8368
48.0200 55.4240
48.0300 56.6116
48.0400 45.0313
48.0500 55.6541
48.0600 41.0150
48.0700 49.7140
48.0800 43.5872
48.0900 43.6030
48.1000 55.0186
48.1100 39.2615
48.1200 47.1490
48.1300 37.3206
48.1400 49.1452
48.1500 47.8497
48.1600 46.0485
48.1700 54.5088
48.1800 48.7176
48.1900 54.0724
48.2000 39.1196
48.2100 52.1282
48.2200 55.9132
48.2300 34.8916
48.2400 45.6191
48.2500 54.9218
48.2600 49.2854
48.2700 60.5404
48.2800 44.8132
48.2900 63.0810
48.3000 44.3671
48.3100 49.6349
48.3200 45.3665
48.3300 43.9556
48.3400 41.1458
48.3500 46.4467
48.3600 49.0031
48.3700 60.1957
48.3800 45.2462
48.3900 44.4598
48.4000 44.0781
48.4100 45.7964
48.4200 50.7150
48.4300 48.1153
48.4400 44.2937
48.4500 47.6420
48.4600 55.6732
48.4700 43.7559
48.4800 54.0591
48.4900 44.6064
48.5000 53.2315
48.5100 45.8657
48.5200 52.0730
48.5300 48.4418
48.5400 59.4219
48.5500 56.2516
48.5600 44.9823
48.5700 46.3015
48.5800 36.0567
48.5900 45.1919
48.6000 53.4278
48.6100 49.0729
48.6200 43.3554
48.6300 52.6685
48.6400 48.5863
48.6500 50.7012
48.6600 43.1502
48.6700 54.4158
48.6800 45.3199
48.6900 41.4133
48.7000 39.1801
48.7100 47.8299
48.7200 52.9799
48.7300 56.2895
48.7400 39.4288
48.7500 41.5340
48.7600 36.7599
48.7700 55.5997
48.7800 53.1205
48.7900 48.0872
48.8000 51.4970
48.8100 54.2291
48.8200 49.0284
48.8300 55.2627
48.8400 43.3014
48.8500 49.4940
48.8600 67.7386
48.8700 55.5484
48.8800 37.6780
48.8900 45.3430
48.9000 52.0765
48.9100 44.3663
48.9200 45.4580
48.9300 50.1678
48.9400 48.4948
48.9500 43.7918
48.9600 56.2803
48.9700 58.9310
48.9800 48.1570
48.9900 54.2121
49.0000 44.3369
49.0100 49.4075
49.0200 49.7487
49.0300 43.6042
49.0400 44.1663
49.0500 44.0840
49.0600 43.6089
49.0700 40.8989
49.0800 50.8873
49.0900 60.9131
49.1000 54.1186
49.1100 38.2727
49.1200 53.8957
49.1300 55.8626
49.1400 43.6606
49.1500 42.0257
49.1600 56.1332
49.1700 59.4054
49.1800 55.5411
49.1900 43.0457
49.2000 47.7507
49.2100 44.7632
49.2200 43.4200
49.2300 44.3494
49.2400 49.9198
49.2500 32.7686
49.2600 55.4528
49.2700 46.1530
49.2800 35.1807
49.2900 43.1759
49.3000 41.2580
49.3100 43.4993
49.3200 53.8911
49.3300 49.0772
49.3400 49.1437
49.3500 47.3744
49.3600 38.9035
49.3700 46.8577
49.3800 42.5543
49.3900 42.5593
49.4000 40.1576
49.4100 52.4950
49.4200 54.9695
49.4300 55.2201
49.4400 48.9402
49.4500 43.8471
49.4600 54.4073
49.4700 36.2532
49.4800 47.6786
49.4900 52.7651
49.5000 47.4033
49.5100 41.4155
49.5200 47.4189
49.5300 58.6520
49.5400 52.8835
49.5500 50.5586
49.5600 45.7866
49.5700 39.3428
49.5800 47.9440
49.5900 43.8274
49.6000 55.8849
49.6100 41.9409
49.6200 47.1306
49.6300 51.1483
49.6400 36.0370
49.6500 45.1735
49.6600 63.4382
49.6700 41.6773
49.6800 34.2132
49.6900 51.6004
49.7000 50.0217
49.7100 43.0099
49.7200 42.8680
49.7300 49.2227
49.7400 40.4553
49.7500 44.5588
49.7600 47.5543
49.7700 43.9853
49.7800 48.8229
49.7900 47.1306
49.8000 50.2125
49.8100 29.7404
49.8200 45.2187
49.8300 49.5857
49.8400 51.0347
49.8500 51.5185
49.8600 50.0334
49.8700 51.0525
49.8800 46.2899
49.8900 42.2274
49.9000 53.2494
49.9100 50.8653
49.9200 52.3457
49.9300 50.9594
49.9400 48.1169
49.9500 51.1049
49.9600 40.1303
49.9700 42.4645
49.9800 38.3179
49.9900 48.2832
50.0000 38.5319
50.0100 65.6468
50.0200 48.1804
50.0300 59.8002
50.0400 51.4579
50.0500 48.5962
50.0600 48.9099
50.0700 52.6063
50.0800 48.9749
50.0900 46.3526
50.1000 44.8013
50.1100 40.5277
50.1200 46.7970
50.1300 56.8882
50.1400 53.0877
50.1500 54.0243
50.1600 46.0978
50.1700 48.7123
50.1800 33.3385
50.1900 53.5830
50.2000 60.1215
50.2100 39.6919
50.2200 48.3341
50.2300 53.3188
50.2400 45.2077
50.2500 44.1237
50.2600 52.6042
50.2700 49.1673
50.2800 47.3368
50.2900 42.9114
50.3000 52.0616
50.3100 56.8181
50.3200 56.8474
50.3300 45.8450
50.3400 57.0450
50.3500 55.9341
50.3600 54.7284
50.3700 44.2352
50.3800 48.9443
50.3900 44.9282
50.4000 38.9385
50.4100 50.8256
50.4200 46.0634
50.4300 42.8349
50.4400 45.9517
50.4500 50.8510
50.4600 49.4542
50.4700 49.9773
50.4800 39.9852
50.4900 37.9174
50.5000 56.3440
50.5100 57.5187
50.5200 44.5919
50.5300 48.0333
50.5400 48.0219
50.5500 57.0432
50.5600 36.1770
50.5700 40.8097
50.5800 44.4635
50.5900 42.4818
50.6000 43.6597
50.6100 49.1690
50.6200 59.1260
50.6300 50.6365
50.6400 54.5949
50.6500 52.0175
50.6600 48.6252
50.6700 48.0370
50.6800 58.8457
50.6900 53.6872
50.7000 46.0494
50.7100 40.6968
50.7200 51.6925
50.7300 43.9657
50.7400 55.1523
50.7500 44.0336
50.7600 30.3593
50.7700 37.6177
50.7800 48.8399
50.7900 39.2954
50.8000 40.2714
50.8100 66.3773
50.8200 58.7407
50.8300 46.1660
50.8400 54.2670
50.8500 41.1931
50.8600 45.9203
50.8700 52.4843
50.8800 46.1804
50.8900 34.2618
50.9000 49.1070
50.9100 48.2310
50.9200 46.2513
50.9300 58.2994
50.9400 56.1567
50.9500 49.3372
50.9600 46.0999
50.9700 53.0730
50.9800 48.9431
50.9900 53.8279
51.0000 48.1111
51.0100 43.8163
51.0200 46.5725
51.0300 40.3354
51.0400 58.9974
51.0500 52.5366
51.0600 36.5268
51.0700 50.4598
51.0800 52.7222
51.0900 37.6181
51.1000 42.0479
51.1100 40.4062
51.1200 52.4385
51.1300 49.6162
51.1400 39.0295
51.1500 47.6391
51.1600 34.9603
51.1700 43.4307
51.1800 47.9396
51.1900 53.2502
51.2000 38.8831
51.2100 45.2030
51.2200 47.0926
51.2300 59.2275
51.2400 43.4338
51.2500 44.0304
51.2600 64.2337
51.2700 52.2129
51.2800 62.8087
51.2900 41.7426
51.3000 57.2209
51.3100 47.1318
51.3200 49.3375
51.3300 42.7898
51.3400 40.7441
51.3500 43.3616
51.3600 50.9254
51.3700 52.4871
51.3800 43.9784
51.3900 39.4669
51.4000 46.7894
51.4100 36.5367
51.4200 37.9095
51.4300 41.3043
51.4400 58.6621
51.4500 43.2542
51.4600 44.2568
51.4700 50.9296
51.4800 46.0633
51.4900 49.5164
51.5000 43.1527
51.5100 48.2944
51.5200 49.4572
51.5300 49.2626
51.5400 46.3249
51.5500 53.6026
51.5600 47.1750
51.5700 58.0451
51.5800 46.8894
51.5900 52.5349
51.6000 49.1578
51.6100 52.3911
51.6200 57.9130
51.6300 37.8537
51.6400 34.2027
51.6500 45.8560
51.6600 54.6928
51.6700 35.6213
51.6800 49.4339
51.6900 48.1319
51.7000 55.1284
