#Collected Data-235
#Intensity_unit=counts
#Attenuator_coefficient=1.000000
40.0000 7.8954
40.0100 4.9881
40.0200 4.0940
40.0300 4.0949
40.0400 4.9538
40.0500 5.2391
40.0600 5.0859
40.0700 4.6393
40.0800 7.9004
40.0900 6.7430
40.1000 5.4426
40.1100 5.4600
40.1200 5.6707
40.1300 3.6990
40.1400 4.5113
40.1500 3.4406
40.1600 7.4326
40.1700 4.1042
40.1800 5.9975
40.1900 9.1675
40.2000 7.3857
40.2100 4.3294
40.2200 3.4488
40.2300 5.7922
40.2400 5.7184
40.2500 4.4118
40.2600 5.2541
40.2700 3.2191
40.2800 5.3237
40.2900 4.5615
40.3000 5.2276
40.3100 4.2204
40.3200 1.6564
40.3300 7.4991
40.3400 5.6426
40.3500 4.4645
40.3600 0.1473
40.3700 2.1973
40.3800 9.3389
40.3900 6.1143
40.4000 4.9150
40.4100 3.8941
40.4200 4.3771
40.4300 3.5317
40.4400 4.6904
40.4500 5.0895
40.4600 6.7566
40.4700 9.6213
40.4800 2.0566
40.4900 9.6029
40.5000 7.1552
40.5100 4.2665
40.5200 5.7034
40.5300 9.7403
40.5400 6.8618
40.5500 8.1549
40.5600 5.7296
40.5700 7.8053
40.5800 5.2233
40.5900 3.6808
40.6000 7.2545
40.6100 3.6067
40.6200 6.8270
40.6300 5.5844
40.6400 7.4088
40.6500 7.3887
40.6600 3.2845
40.6700 0.9041
40.6800 5.2126
40.6900 4.3365
40.7000 7.9705
40.7100 6.4345
40.7200 6.9461
40.7300 4.0877
40.7400 1.0776
40.7500 4.0403
40.7600 3.0452
40.7700 8.3381
40.7800 6.6881
40.7900 6.2217
40.8000 3.0590
40.8100 5.0740
40.8200 5.7651
40.8300 6.1840
40.8400 3.5123
40.8500 8.5238
40.8600 4.2881
40.8700 2.0576
40.8800 2.9680
40.8900 3.1645
40.9000 7.0734
40.9100 3.0338
40.9200 4.2741
40.9300 6.6881
40.9400 4.3774
40.9500 5.0254
40.9600 4.7222
40.9700 3.4418
40.9800 5.4729
40.9900 5.5686
41.0000 8.2996
41.0100 5.0498
41.0200 3.9626
41.0300 7.7233
41.0400 6.8997
41.0500 3.6613
41.0600 5.9819
41.0700 5.3177
41.0800 6.9139
41.0900 4.6230
41.1000 4.3029
41.1100 8.0684
41.1200 4.1532
41.1300 6.1690
41.1400 3.6985
41.1500 4.0715
41.1600 5.3528
41.1700 5.1731
41.1800 6.0275
41.1900 2.2993
41.2000 6.1512
41.2100 3.5914
41.2200 6.7340
41.2300 4.4554
41.2400 4.9818
41.2500 4.2975
41.2600 4.2586
41.2700 3.6775
41.2800 4.0006
41.2900 3.7285
41.3000 7.0294
41.3100 8.5567
41.3200 3.0951
41.3300 7.4822
41.3400 6.9506
41.3500 7.3489
41.3600 7.6272
41.3700 4.2066
41.3800 7.9046
41.3900 5.8837
41.4000 5.8827
41.4100 6.2995
41.4200 7.3454
41.4300 2.2541
41.4400 4.2132
41.4500 4.5091
41.4600 7.4216
41.4700 2.1127
41.4800 4.4819
41.4900 6.3626
41.5000 4.1113
41.5100 7.7682
41.5200 3.5538
41.5300 3.3681
41.5400 5.0994
41.5500 7.8050
41.5600 2.6115
41.5700 2.5440
41.5800 10.2536
41.5900 8.0940
41.6000 8.3004
41.6100 7.0872
41.6200 8.7134
41.6300 5.7411
41.6400 1.3256
41.6500 7.4148
41.6600 5.0250
41.6700 3.4784
41.6800 4.2075
41.6900 3.2836
41.7000 3.8488
41.7100 2.9669
41.7200 10.3590
41.7300 6.1782
41.7400 4.0341
41.7500 3.2819
41.7600 8.5422
41.7700 3.3827
41.7800 4.0307
41.7900 5.1398
41.8000 5.0925
41.8100 3.4374
41.8200 3.4217
41.8300 3.4187
41.8400 7.1204
41.8500 6.3064
41.8600 2.9640
41.8700 1.1828
41.8800 2.3709
41.8900 3.8238
41.9000 6.4989
41.9100 6.3198
41.9200 5.8656
41.9300 9.4704
41.9400 10.9435
41.9500 5.4800
41.9600 3.3711
41.9700 5.4837
41.9800 6.3764
41.9900 7.7165
42.0000 3.6888
42.0100 5.2703
42.0200 8.2670
42.0300 9.7469
42.0400 5.6912
42.0500 3.1618
42.0600 6.3025
42.0700 4.2708
42.0800 5.9680
42.0900 5.3029
42.1000 5.8937
42.1100 4.3420
42.1200 4.1697
42.1300 4.9621
42.1400 7.0494
42.1500 5.2819
42.1600 2.2420
42.1700 9.5807
42.1800 4.2463
42.1900 4.3286
42.2000 3.6459
42.2100 6.0220
42.2200 2.0466
42.2300 6.2479
42.2400 6.8852
42.2500 3.2214
42.2600 1.7198
42.2700 3.1931
42.2800 6.3709
42.2900 5.7499
42.3000 2.8887
42.3100 8.6720
42.3200 4.0372
42.3300 6.1568
42.3400 8.0396
42.3500 2.5266
42.3600 6.9195
42.3700 5.8195
42.3800 5.2715
42.3900 7.2913
42.4000 6.6624
42.4100 3.6691
42.4200 1.1709
42.4300 4.1942
42.4400 4.6228
42.4500 1.8335
42.4600 4.0081
42.4700 6.8845
42.4800 15.6762
42.4900 5.4220
42.5000 8.1108
42.5100 4.6383
42.5200 9.5448
42.5300 4.4706
42.5400 5.0109
42.5500 4.0851
42.5600 8.6908
42.5700 6.1692
42.5800 5.4589
42.5900 9.1767
42.6000 6.0286
42.6100 5.5575
42.6200 9.0646
42.6300 4.0450
42.6400 6.3013
42.6500 4.7070
42.6600 5.1826
42.6700 4.0149
42.6800 8.1226
42.6900 3.4829
42.7000 4.1726
42.7100 9.9315
42.7200 3.9358
42.7300 5.2651
42.7400 5.0806
42.7500 3.8202
42.7600 3.2796
42.7700 5.1212
42.7800 6.9193
42.7900 5.1549
42.8000 7.1852
42.8100 4.1643
42.8200 7.5679
42.8300 6.5640
42.8400 7.0865
42.8500 5.2273
42.8600 5.4449
42.8700 9.2818
42.8800 3.2844
42.8900 7.3204
42.9000 5.2303
42.9100 2.2109
42.9200 1.9732
42.9300 1.6712
42.9400 2.7291
42.9500 2.4654
42.9600 4.6807
42.9700 8.6990
42.9800 6.9296
42.9900 3.3434
43.0000 4.7201
43.0100 5.3730
43.0200 4.3350
43.0300 9.8521
43.0400 1.7629
43.0500 2.6742
43.0600 5.9600
43.0700 6.2661
43.0800 3.2110
43.0900 4.4226
43.1000 5.4470
43.1100 5.4135
43.1200 6.2606
43.1300 8.9712
43.1400 5.7758
43.1500 8.3131
43.1600 4.5211
43.1700 5.2431
43.1800 4.2951
43.1900 8.0685
43.2000 6.1796
43.2100 4.5649
43.2200 7.7269
43.2300 3.2019
43.2400 3.9203
43.2500 2.7005
43.2600 6.7195
43.2700 3.4742
43.2800 6.4440
43.2900 4.7867
43.3000 4.6077
43.3100 4.3584
43.3200 5.7131
43.3300 2.8393
43.3400 1.3632
43.3500 8.9675
43.3600 5.0701
43.3700 4.2447
43.3800 4.1711
43.3900 7.2067
43.4000 5.3716
43.4100 4.8909
43.4200 5.9457
43.4300 3.5435
43.4400 5.3042
43.4500 7.5147
43.4600 6.9519
43.4700 8.4872
43.4800 6.9126
43.4900 7.8364
43.5000 3.7253
43.5100 3.4540
43.5200 6.3578
43.5300 8.8632
43.5400 3.5969
43.5500 4.1524
43.5600 3.2172
43.5700 8.1051
43.5800 5.7764
43.5900 2.1078
43.6000 6.7404
43.6100 3.3379
43.6200 9.3297
43.6300 12.1689
43.6400 5.9687
43.6500 5.2548
43.6600 3.5290
43.6700 5.9751
43.6800 4.1454
43.6900 6.5679
43.7000 4.2966
43.7100 7.3117
43.7200 6.7850
43.7300 6.6703
43.7400 5.3996
43.7500 5.8422
43.7600 3.2053
43.7700 3.4147
43.7800 3.3116
43.7900 4.5981
43.8000 6.1928
43.8100 2.3157
43.8200 5.3463
43.8300 5.3436
43.8400 0.9854
43.8500 6.4062
43.8600 3.2902
43.8700 1.1661
43.8800 4.6549
43.8900 5.7217
43.9000 5.4658
43.9100 1.7492
43.9200 3.6829
43.9300 4.0824
43.9400 4.7284
43.9500 2.9250
43.9600 4.0037
43.9700 4.5853
43.9800 6.3667
43.9900 5.0000
44.0000 7.0114
44.0100 4.7472
44.0200 9.9682
44.0300 6.6924
44.0400 6.2328
44.0500 9.1458
44.0600 4.3781
44.0700 10.3420
44.0800 7.5925
44.0900 9.0259
44.1000 13.7906
44.1100 7.4018
44.1200 5.5920
44.1300 9.4476
44.1400 6.7651
44.1500 9.1210
44.1600 2.7973
44.1700 4.9048
44.1800 14.7006
44.1900 6.5005
44.2000 14.9271
44.2100 12.9354
44.2200 11.4309
44.2300 5.3014
44.2400 8.3449
44.2500 14.6460
44.2600 10.9119
44.2700 15.7826
44.2800 20.3581
44.2900 19.2336
44.3000 30.1840
44.3100 17.5124
44.3200 18.9933
44.3300 25.7121
44.3400 24.4334
44.3500 28.4591
44.3600 44.2058
44.3700 36.5291
44.3800 39.0556
44.3900 43.2448
44.4000 55.4928
44.4100 48.4190
44.4200 65.9270
44.4300 68.9686
44.4400 81.9909
44.4500 107.8333
44.4600 107.6899
44.4700 113.8352
44.4800 128.6105
44.4900 133.1753
44.5000 144.0913
44.5100 164.0211
44.5200 159.7118
44.5300 174.0718
44.5400 173.6756
44.5500 201.6947
44.5600 187.1133
44.5700 180.7930
44.5800 188.3913
44.5900 212.6443
44.6000 208.8772
44.6100 202.4810
44.6200 198.6292
44.6300 176.2199
44.6400 170.0621
44.6500 153.3087
44.6600 144.9180
44.6700 128.9128
44.6800 120.2502
44.6900 93.9728
44.7000 107.3823
44.7100 90.1102
44.7200 58.0071
44.7300 66.7456
44.7400 70.7157
44.7500 53.8223
44.7600 49.1955
44.7700 37.1589
44.7800 50.1089
44.7900 27.5954
44.8000 29.2405
44.8100 34.7735
44.8200 27.8620
44.8300 20.1970
44.8400 25.8393
44.8500 19.4685
44.8600 20.6032
44.8700 15.3707
44.8800 11.6648
44.8900 10.4368
44.9000 9.0171
44.9100 9.0361
44.9200 15.2972
44.9300 12.7202
44.9400 14.1400
44.9500 13.9592
44.9600 8.9850
44.9700 8.1550
44.9800 14.2845
44.9900 7.5109
45.0000 5.7292
45.0100 9.6562
45.0200 10.3447
45.0300 8.3524
45.0400 9.1585
45.0500 3.7103
45.0600 6.5864
45.0700 5.0098
45.0800 7.7754
45.0900 3.6030
45.1000 8.2150
45.1100 10.9080
45.1200 8.3289
45.1300 10.1747
45.1400 5.4266
45.1500 5.1070
45.1600 4.9317
45.1700 3.9953
45.1800 6.1826
45.1900 6.5208
45.2000 4.9796
45.2100 7.2924
45.2200 12.2609
45.2300 4.4053
45.2400 6.2902
45.2500 3.0343
45.2600 3.9027
45.2700 5.2626
45.2800 2.3934
45.2900 5.5442
45.3000 4.1191
45.3100 2.1170
45.3200 5.5364
45.3300 8.3756
45.3400 7.1821
45.3500 8.7696
45.3600 2.3199
45.3700 3.0411
45.3800 5.0775
45.3900 7.2718
45.4000 1.7487
45.4100 6.5054
45.4200 5.5929
45.4300 8.1653
45.4400 6.1801
45.4500 6.5299
45.4600 8.0835
45.4700 3.2311
45.4800 7.1014
45.4900 4.0425
45.5000 6.9022
45.5100 3.7239
45.5200 8.1192
45.5300 4.7212
45.5400 10.8123
45.5500 9.6408
45.5600 4.6284
45.5700 5.9983
45.5800 7.2877
45.5900 4.5546
45.6000 4.4661
45.6100 4.8205
45.6200 4.5768
45.6300 2.0842
45.6400 7.3901
45.6500 8.2711
45.6600 7.4433
45.6700 0.1678
45.6800 5.0806
45.6900 4.8888
45.7000 5.9359
45.7100 6.3501
45.7200 2.8603
45.7300 2.5378
45.7400 4.3590
45.7500 6.2246
45.7600 4.2311
45.7700 5.1416
45.7800 2.0516
45.7900 3.3212
45.8000 6.6646
45.8100 6.7029
45.8200 4.3825
45.8300 4.9233
45.8400 6.4144
45.8500 3.5566
45.8600 5.3724
45.8700 1.3460
45.8800 5.1969
45.8900 6.3349
45.9000 6.8391
45.9100 5.4291
45.9200 6.7600
45.9300 4.1427
45.9400 7.1312
45.9500 4.1269
45.9600 4.9984
45.9700 3.3104
45.9800 2.1186
45.9900 5.9614
46.0000 7.2642
46.0100 2.8481
46.0200 4.9513
46.0300 4.5092
46.0400 3.2682
46.0500 6.6109
46.0600 4.6041
46.0700 3.1370
46.0800 8.3192
46.0900 3.1516
46.1000 4.0539
46.1100 6.1388
46.1200 3.7664
46.1300 6.6075
46.1400 3.7267
46.1500 6.1481
46.1600 3.0513
46.1700 4.9135
46.1800 8.6930
46.1900 1.7677
46.2000 3.0062
46.2100 2.3854
46.2200 6.5154
46.2300 9.8538
46.2400 7.1514
46.2500 4.6519
46.2600 3.4126
46.2700 6.2801
46.2800 4.5468
46.2900 2.9973
46.3000 5.0903
46.3100 5.2921
46.3200 4.2635
46.3300 3.7365
46.3400 4.7509
46.3500 5.4621
46.3600 3.6865
46.3700 3.1025
46.3800 5.1873
46.3900 3.0834
46.4000 5.3305
46.4100 5.0395
46.4200 0.2859
46.4300 2.8672
46.4400 6.8295
46.4500 3.4176
46.4600 4.1650
46.4700 4.6945
46.4800 6.4292
46.4900 4.1937
46.5000 6.4355
46.5100 7.1154
46.5200 6.8125
46.5300 6.1610
46.5400 4.1045
46.5500 5.8441
46.5600 7.1830
46.5700 7.5850
46.5800 5.6286
46.5900 4.5118
46.6000 4.9407
46.6100 6.2567
46.6200 3.3788
46.6300 8.2707
46.6400 9.0371
46.6500 4.8829
46.6600 7.5353
46.6700 3.7586
46.6800 2.4082
46.6900 7.9831
46.7000 3.2465
46.7100 2.0617
46.7200 6.0909
46.7300 3.1840
46.7400 5.1070
46.7500 4.4582
46.7600 6.7155
46.7700 5.5808
46.7800 6.7242
46.7900 6.6358
46.8000 6.2871
46.8100 3.0095
46.8200 5.9347
46.8300 2.1441
46.8400 5.3749
46.8500 6.4718
46.8600 6.1532
46.8700 1.5211
46.8800 2.5252
46.8900 4.5965
46.9000 1.3759
46.9100 6.2671
46.9200 8.1674
46.9300 10.2178
46.9400 4.0897
46.9500 4.5768
46.9600 6.7792
46.9700 6.4621
46.9800 3.1457
46.9900 9.9452
47.0000 2.4983
47.0100 4.7968
47.0200 6.1368
47.0300 9.1408
47.0400 4.3774
47.0500 2.9946
47.0600 2.8929
47.0700 2.1893
47.0800 7.3850
47.0900 1.7258
47.1000 3.6014
47.1100 2.8288
47.1200 2.6775
47.1300 4.6289
47.1400 5.5907
47.1500 3.0389
47.1600 2.2188
47.1700 4.1805
47.1800 5.2015
47.1900 2.1437
47.2000 4.1094
47.2100 7.2783
47.2200 5.6892
47.2300 4.6355
47.2400 4.8923
47.2500 3.2217
47.2600 6.1196
47.2700 1.1115
47.2800 2.6551
47.2900 4.9975
47.3000 5.4379
47.3100 6.9751
47.3200 5.7224
47.3300 2.9928
47.3400 8.7531
47.3500 3.3653
47.3600 5.3423
47.3700 4.5854
47.3800 8.7178
47.3900 1.9864
47.4000 4.8758
47.4100 4.2524
47.4200 5.2068
47.4300 8.4582
47.4400 7.2520
47.4500 5.5162
47.4600 4.3131
47.4700 3.0697
47.4800 1.5712
47.4900 5.4996
47.5000 8.2559
47.5100 3.8125
47.5200 4.7735
47.5300 4.3103
47.5400 4.1827
47.5500 4.7165
47.5600 5.1713
47.5700 3.4246
47.5800 2.3132
47.5900 4.7411
47.6000 3.2036
47.6100 3.6274
47.6200 4.6489
47.6300 4.2735
47.6400 2.9148
47.6500 4.5400
47.6600 5.3848
47.6700 4.1722
47.6800 5.0112
47.6900 2.6623
47.7000 7.3189
47.7100 2.5805
47.7200 3.6804
47.7300 4.7639
47.7400 5.1857
47.7500 4.2230
47.7600 9.0472
47.7700 2.5547
47.7800 3.2992
47.7900 8.4044
47.8000 5.3255
47.8100 4.6981
47.8200 7.3012
47.8300 2.6711
47.8400 2.2231
47.8500 4.0596
47.8600 3.8391
47.8700 4.1720
47.8800 7.9702
47.8900 3.4454
47.9000 6.2817
47.9100 5.0447
47.9200 4.4976
47.9300 4.3084
47.9400 4.5821
47.9500 6.1147
47.9600 3.6055
47.9700 2.1486
47.9800 3.1913
47.9900 2.9886
48.0000 2.0699
48.0100 1.4292
48.0200 6.0310
48.0300 4.1119
48.0400 5.5919
48.0500 5.4909
48.0600 4.6649
48.0700 2.4493
48.0800 4.8861
48.0900 5.7851
48.1000 4.2050
48.1100 3.9802
48.1200 1.6826
48.1300 6.1777
48.1400 6.9614
48.1500 5.1420
48.1600 2.1790
48.1700 4.4254
48.1800 2.7803
48.1900 6.5698
48.2000 3.6456
48.2100 3.0482
48.2200 4.0075
48.2300 1.2989
48.2400 3.0933
48.2500 4.0456
48.2600 4.3280
48.2700 6.5368
48.2800 1.8401
48.2900 4.9774
48.3000 4.4932
48.3100 2.1228
48.3200 7.2846
48.3300 4.1793
48.3400 4.2663
48.3500 4.4213
48.3600 3.8351
48.3700 8.3690
48.3800 4.5022
48.3900 4.1708
48.4000 3.7350
48.4100 4.4780
48.4200 6.2001
48.4300 7.8803
48.4400 3.0793
48.4500 7.0898
48.4600 4.8813
48.4700 1.9602
48.4800 5.0723
48.4900 4.1496
48.5000 3.9523
48.5100 5.2986
48.5200 3.2761
48.5300 1.1957
48.5400 2.2694
48.5500 4.7230
48.5600 2.4506
48.5700 4.6635
48.5800 1.6316
48.5900 6.2390
48.6000 7.2818
48.6100 2.4924
48.6200 1.2893
48.6300 5.0550
48.6400 7.4911
48.6500 8.1866
48.6600 7.2781
48.6700 3.9168
48.6800 2.2515
48.6900 4.9586
48.7000 4.3212
48.7100 7.3528
48.7200 4.1629
48.7300 9.9616
48.7400 4.4134
48.7500 4.3095
48.7600 4.3880
48.7700 2.5514
48.7800 4.4283
48.7900 1.5943
48.8000 2.7354
48.8100 2.5528
48.8200 2.4632
48.8300 3.1563
48.8400 4.9281
48.8500 3.1953
48.8600 3.3111
48.8700 3.9886
48.8800 5.4808
48.8900 3.0333
48.9000 6.0119
48.9100 6.1860
48.9200 4.6421
48.9300 6.0280
48.9400 3.4598
48.9500 3.2107
48.9600 9.1732
48.9700 1.7341
48.9800 3.6281
48.9900 2.8241
49.0000 6.6997
49.0100 7.0494
49.0200 2.4968
49.0300 2.0225
49.0400 3.9466
49.0500 2.9913
49.0600 8.6475
49.0700 5.0271
49.0800 7.4504
49.0900 3.7854
49.1000 4.8978
49.1100 8.9171
49.1200 2.6965
49.1300 4.2499
49.1400 1.3797
49.1500 5.9409
49.1600 6.1975
49.1700 3.2069
49.1800 3.5353
49.1900 5.5688
49.2000 3.5131
49.2100 3.6981
49.2200 4.3253
49.2300 4.9220
49.2400 3.0569
49.2500 2.2183
49.2600 3.9868
49.2700 3.3913
49.2800 6.7545
49.2900 6.9064
49.3000 4.6295
49.3100 4.2573
49.3200 1.9309
49.3300 2.2013
49.3400 4.4381
49.3500 3.1235
49.3600 3.2281
49.3700 3.0463
49.3800 2.0510
49.3900 4.2906
49.4000 4.8190
49.4100 2.9467
49.4200 4.6379
49.4300 4.8183
49.4400 2.3127
49.4500 8.7625
49.4600 4.1105
49.4700 5.9130
49.4800 5.2819
49.4900 6.0238
49.5000 3.9438
49.5100 9.1578
49.5200 1.6555
49.5300 7.5976
49.5400 4.6649
49.5500 3.6194
49.5600 3.0642
49.5700 2.5063
49.5800 4.9474
49.5900 9.8263
49.6000 6.8939
49.6100 4.7623
49.6200 7.5032
49.6300 5.5049
49.6400 4.2903
49.6500 5.6598
49.6600 4.1097
49.6700 4.4671
49.6800 5.8339
49.6900 8.1771
49.7000 4.3142
49.7100 2.8476
49.7200 1.9641
49.7300 6.4995
49.7400 4.7311
49.7500 5.1267
49.7600 2.7444
49.7700 3.6750
49.7800 1.7431
49.7900 3.2042
49.8000 4.3064
49.8100 3.8867
49.8200 1.5153
49.8300 9.7622
49.8400 4.1694
49.8500 8.5257
49.8600 6.5903
49.8700 6.0981
49.8800 7.1046
49.8900 6.8313
49.9000 4.4745
49.9100 5.9238
49.9200 1.2762
49.9300 2.1567
49.9400 2.1211
49.9500 2.1439
49.9600 2.1181
49.9700 3.4748
49.9800 3.8772
49.9900 5.8985
50.0000 3.3904
50.0100 2.4433
50.0200 5.0851
50.0300 3.3395
50.0400 3.9919
50.0500 6.1086
50.0600 2.7421
50.0700 2.7077
50.0800 4.9950
50.0900 3.3141
50.1000 3.3725
50.1100 6.1159
50.1200 6.4585
50.1300 8.8555
50.1400 6.1672
50.1500 6.4922
50.1600 1.6050
50.1700 1.5380
50.1800 4.6396
50.1900 3.2088
50.2000 3.3619
50.2100 3.0399
50.2200 3.9973
50.2300 6.0842
50.2400 0.4068
50.2500 6.4697
50.2600 6.4155
50.2700 5.0692
50.2800 3.1481
50.2900 4.5423
50.3000 3.5971
50.3100 3.8933
50.3200 0.0000
50.3300 0.1105
50.3400 4.9316
50.3500 5.5968
50.3600 2.2807
50.3700 5.7891
50.3800 8.0748
50.3900 6.7397
50.4000 7.9924
50.4100 8.0971
50.4200 4.8837
50.4300 5.3914
50.4400 1.9545
50.4500 2.7655
50.4600 4.3339
50.4700 3.8206
50.4800 6.3043
50.4900 5.8150
50.5000 5.6517
50.5100 4.9376
50.5200 2.3302
50.5300 4.0965
50.5400 5.4974
50.5500 8.0056
50.5600 4.8381
50.5700 3.2869
50.5800 7.4975
50.5900 10.6920
50.6000 3.2177
50.6100 7.1155
50.6200 5.4960
50.6300 6.2130
50.6400 7.2030
50.6500 5.0361
50.6600 2.2761
50.6700 4.5531
50.6800 2.4247
50.6900 3.5236
50.7000 6.8678
50.7100 2.6493
50.7200 4.9813
50.7300 3.7127
50.7400 5.2397
50.7500 5.3025
50.7600 2.1169
50.7700 2.9540
50.7800 2.1487
50.7900 4.0655
50.8000 10.5890
50.8100 6.0377
50.8200 6.7201
50.8300 5.0158
50.8400 4.1474
50.8500 6.0349
50.8600 9.4899
50.8700 2.5209
50.8800 9.4969
50.8900 2.1836
50.9000 1.3563
50.9100 2.0983
50.9200 3.6410
50.9300 1.2158
50.9400 5.2588
50.9500 4.3514
50.9600 2.2765
50.9700 4.3589
50.9800 7.2978
50.9900 8.1937
51.0000 3.3321
51.0100 7.5728
51.0200 3.2336
51.0300 2.9666
51.0400 5.4462
51.0500 2.4107
51.0600 3.0540
51.0700 3.0797
51.0800 2.0630
51.0900 7.2174
51.1000 2.9548
51.1100 3.5404
51.1200 5.4644
51.1300 3.9112
51.1400 8.4889
51.1500 5.7113
51.1600 5.1115
51.1700 1.2181
51.1800 4.2368
51.1900 3.0449
51.2000 3.8441
51.2100 3.3732
51.2200 3.7218
51.2300 3.1950
51.2400 6.1780
51.2500 6.8322
51.2600 4.2492
51.2700 7.8625
51.2800 4.5591
51.2900 1.1666
51.3000 2.6511
51.3100 4.1054
51.3200 9.5206
51.3300 3.4511
51.3400 4.4290
51.3500 3.6706
51.3600 3.1655
51.3700 4.3379
51.3800 1.2735
51.3900 4.2951
51.4000 5.2942
51.4100 6.4369
51.4200 2.7582
51.4300 4.2732
51.4400 4.5495
51.4500 1.3986
51.4600 9.4438
51.4700 1.1936
51.4800 5.7982
51.4900 4.1325
51.5000 3.3880
51.5100 3.0423
51.5200 3.1601
51.5300 6.7905
51.5400 7.2477
51.5500 7.7214
51.5600 3.6022
51.5700 3.9013
51.5800 2.6815
51.5900 3.1255
51.6000 5.1428
51.6100 3.2026
51.6200 9.8350
51.6300 6.1468
51.6400 3.7387
51.6500 4.2252
51.6600 8.2114
51.6700 7.9408
51.6800 5.7477
51.6900 6.7361
51.7000 3.3824
51.7100 2.1953
51.7200 2.2148
51.7300 3.1574
51.7400 7.4641
51.7500 3.9241
51.7600 4.6303
51.7700 7.3564
51.7800 2.4030
51.7900 2.0148
51.8000 5.2301
51.8100 5.1720
51.8200 6.7790
51.8300 3.1084
51.8400 2.8482
51.8500 5.4587
51.8600 5.5863
51.8700 5.7421
51.8800 2.8707
51.8900 3.4375
51.9000 3.7303
51.9100 6.1099
51.9200 3.1910
51.9300 5.4944
51.9400 6.7452
51.9500 5.0966
51.9600 4.0096
51.9700 6.3421
51.9800 4.1691
51.9900 0.7084
52.0000 5.6375
52.0100 4.1943
52.0200 8.0851
52.0300 7.2191
52.0400 7.7068
52.0500 5.8703
52.0600 2.8057
52.0700 4.8954
52.0800 6.1079
52.0900 6.0322
52.1000 4.5150
52.1100 5.6298
52.1200 5.7569
52.1300 4.8628
52.1400 6.7881
52.1500 5.2779
52.1600 7.6247
52.1700 6.6109
52.1800 6.3641
52.1900 4.7693
52.2000 0.9212
52.2100 2.8839
52.2200 2.1643
52.2300 2.0035
52.2400 1.1231
52.2500 3.1790
52.2600 0.2609
52.2700 3.9884
52.2800 2.7341
52.2900 0.5817
52.3000 6.4985
52.3100 5.0091
52.3200 4.0360
52.3300 4.1531
52.3400 4.0021
52.3500 4.2818
52.3600 4.8883
