#Collected Data-40
#Intensity_unit=counts
#Attenuator_coefficient=1.000000
40.0000 4.2196
40.0100 11.7640
40.0200 8.9527
40.0300 6.3183
40.0400 6.3707
40.0500 5.1414
40.0600 4.2773
40.0700 5.9009
40.0800 4.0125
40.0900 10.0099
40.1000 7.9319
40.1100 7.7623
40.1200 6.2686
40.1300 4.8289
40.1400 5.6625
40.1500 6.3822
40.1600 6.2124
40.1700 9.9633
40.1800 2.4532
40.1900 10.2383
40.2000 7.5937
40.2100 9.8943
40.2200 12.9090
40.2300 6.1546
40.2400 5.0878
40.2500 8.0687
40.2600 9.2866
40.2700 4.4121
40.2800 4.7581
40.2900 6.6755
40.3000 9.2751
40.3100 5.0920
40.3200 7.8646
40.3300 10.5973
40.3400 11.2247
40.3500 11.5142
40.3600 7.7235
40.3700 7.5281
40.3800 8.3312
40.3900 11.1482
40.4000 3.6849
40.4100 8.9192
40.4200 10.0087
40.4300 9.7998
40.4400 13.7572
40.4500 9.4915
40.4600 12.6413
40.4700 13.8707
40.4800 8.1877
40.4900 9.5298
40.5000 9.0736
40.5100 7.6909
40.5200 12.6001
40.5300 9.7159
40.5400 13.5930
40.5500 8.3434
40.5600 11.4691
40.5700 11.1354
40.5800 6.5040
40.5900 13.4412
40.6000 8.5026
40.6100 9.7961
40.6200 11.1795
40.6300 10.7392
40.6400 7.5365
40.6500 9.8462
40.6600 14.2545
40.6700 7.1899
40.6800 12.3443
40.6900 9.3068
40.7000 8.2988
40.7100 10.2987
40.7200 10.7543
40.7300 6.9907
40.7400 8.8622
40.7500 10.1764
40.7600 6.7731
40.7700 8.1949
40.7800 7.0987
40.7900 4.2333
40.8000 4.4429
40.8100 4.2038
40.8200 8.2982
40.8300 10.1044
40.8400 3.2721
40.8500 6.0275
40.8600 4.7898
40.8700 4.4226
40.8800 7.2498
40.8900 6.9940
40.9000 9.0376
40.9100 5.9919
40.9200 11.9132
40.9300 9.3252
40.9400 6.3971
40.9500 4.7076
40.9600 7.6406
40.9700 9.7077
40.9800 7.5675
40.9900 15.9619
41.0000 5.4818
41.0100 7.3230
41.0200 8.6107
41.0300 5.7658
41.0400 5.1118
41.0500 6.9945
41.0600 8.3466
41.0700 8.8928
41.0800 0.7316
41.0900 3.5780
41.1000 9.2632
41.1100 3.4008
41.1200 4.1764
41.1300 2.7655
41.1400 10.0398
41.1500 7.6781
41.1600 5.3989
41.1700 5.9859
41.1800 12.2679
41.1900 11.1435
41.2000 9.9239
41.2100 8.4954
41.2200 9.8969
41.2300 6.4389
41.2400 5.3050
41.2500 5.0242
41.2600 8.9229
41.2700 7.8510
41.2800 7.1419
41.2900 9.4808
41.3000 6.4022
41.3100 6.3752
41.3200 3.2939
41.3300 3.2246
41.3400 8.7015
41.3500 6.6854
41.3600 6.9961
41.3700 4.6457
41.3800 6.9939
41.3900 5.1339
41.4000 5.1071
41.4100 8.6595
41.4200 8.6498
41.4300 6.9718
41.4400 4.1529
41.4500 6.0806
41.4600 3.0353
41.4700 6.9219
41.4800 6.0959
41.4900 6.3677
41.5000 5.7673
41.5100 3.8905
41.5200 7.1822
41.5300 13.3655
41.5400 7.1884
41.5500 9.4895
41.5600 5.5472
41.5700 3.8322
41.5800 6.1508
41.5900 7.5970
41.6000 7.7685
41.6100 14.0257
41.6200 3.2202
41.6300 7.6704
41.6400 8.3001
41.6500 9.8964
41.6600 5.3127
41.6700 3.8274
41.6800 5.6562
41.6900 7.1229
41.7000 10.9556
41.7100 7.9071
41.7200 7.8479
41.7300 8.9290
41.7400 10.2542
41.7500 5.6829
41.7600 9.8862
41.7700 7.6080
41.7800 10.4355
41.7900 6.6856
41.8000 7.6679
41.8100 4.1951
41.8200 6.1329
41.8300 6.0900
41.8400 8.8255
41.8500 12.4104
41.8600 8.2379
41.8700 8.5605
41.8800 7.3943
41.8900 10.5773
41.9000 7.8742
41.9100 8.5021
41.9200 7.4915
41.9300 6.3448
41.9400 6.4576
41.9500 2.2514
41.9600 5.6307
41.9700 11.2706
41.9800 7.2139
41.9900 3.7164
42.0000 8.3538
42.0100 3.5344
42.0200 6.9152
42.0300 9.5983
42.0400 9.9375
42.0500 4.7952
42.0600 11.1234
42.0700 12.1989
42.0800 7.0504
42.0900 7.6370
42.1000 6.8099
42.1100 7.3439
42.1200 4.9135
42.1300 6.8732
42.1400 5.4580
42.1500 7.0926
42.1600 5.3838
42.1700 1.8437
42.1800 3.1998
42.1900 4.2446
42.2000 5.2114
42.2100 6.2881
42.2200 5.1728
42.2300 6.2496
42.2400 4.0584
42.2500 7.6593
42.2600 2.0662
42.2700 7.0205
42.2800 4.8333
42.2900 5.1844
42.3000 3.0304
42.3100 4.7430
42.3200 3.9464
42.3300 6.9622
42.3400 7.8486
42.3500 9.8798
42.3600 6.0684
42.3700 8.7967
42.3800 6.2581
42.3900 4.4838
42.4000 4.1307
42.4100 3.1109
42.4200 5.8904
42.4300 5.1920
42.4400 8.8364
42.4500 4.2538
42.4600 8.0570
42.4700 3.6356
42.4800 3.9936
42.4900 7.1087
42.5000 4.7410
42.5100 3.8212
42.5200 5.1289
42.5300 5.3739
42.5400 6.6048
42.5500 5.4760
42.5600 9.8294
42.5700 5.3515
42.5800 8.8423
42.5900 5.6188
42.6000 4.1204
42.6100 6.3833
42.6200 3.9785
42.6300 6.2972
42.6400 8.4960
42.6500 4.7021
42.6600 5.8195
42.6700 7.2908
42.6800 10.9849
42.6900 4.7795
42.7000 4.2464
42.7100 6.8219
42.7200 5.4038
42.7300 5.0734
42.7400 4.5306
42.7500 7.3069
42.7600 9.2599
42.7700 4.5483
42.7800 3.5779
42.7900 7.6410
42.8000 4.5401
42.8100 6.2126
42.8200 8.1825
42.8300 9.3042
42.8400 9.4403
42.8500 13.2020
42.8600 3.2324
42.8700 4.7887
42.8800 3.8710
42.8900 3.3724
42.9000 9.0831
42.9100 3.4228
42.9200 7.5659
42.9300 7.6568
42.9400 2.8638
42.9500 4.1215
42.9600 4.9521
42.9700 5.7672
42.9800 7.1981
42.9900 6.1669
43.0000 7.8967
43.0100 4.3807
43.0200 3.1010
43.0300 6.9153
43.0400 5.9542
43.0500 8.1097
43.0600 7.5180
43.0700 5.2676
43.0800 7.4710
43.0900 8.4087
43.1000 11.1535
43.1100 9.2350
43.1200 7.8490
43.1300 7.3237
43.1400 5.4665
43.1500 9.1301
43.1600 4.5682
43.1700 8.1706
43.1800 8.4432
43.1900 10.9492
43.2000 7.7972
43.2100 7.3095
43.2200 6.3927
43.2300 11.6512
43.2400 3.6114
43.2500 6.9592
43.2600 2.2535
43.2700 4.4665
43.2800 8.4303
43.2900 7.1620
43.3000 8.4090
43.3100 3.7798
43.3200 5.1712
43.3300 5.0761
43.3400 5.1433
43.3500 5.1498
43.3600 3.3483
43.3700 3.8446
43.3800 5.9488
43.3900 2.6288
43.4000 6.5818
43.4100 3.8934
43.4200 3.3177
43.4300 5.8001
43.4400 8.3090
43.4500 1.7828
43.4600 7.1147
43.4700 5.9563
43.4800 5.2961
43.4900 8.2934
43.5000 6.2791
43.5100 5.0512
43.5200 6.1080
43.5300 9.6926
43.5400 8.0388
43.5500 5.0263
43.5600 3.1101
43.5700 6.2572
43.5800 7.1683
43.5900 5.5692
43.6000 7.9706
43.6100 10.0768
43.6200 11.1069
43.6300 8.8151
43.6400 5.8147
43.6500 9.2110
43.6600 8.2314
43.6700 7.7462
43.6800 5.5022
43.6900 8.3007
43.7000 10.7929
43.7100 8.0664
43.7200 4.3781
43.7300 6.1731
43.7400 4.7708
43.7500 3.8413
43.7600 10.2353
43.7700 4.7731
43.7800 13.5786
43.7900 8.3705
43.8000 6.4521
43.8100 8.1984
43.8200 13.4606
43.8300 9.2529
43.8400 10.0326
43.8500 8.3031
43.8600 8.6258
43.8700 4.2754
43.8800 10.0789
43.8900 7.7315
43.9000 10.4596
43.9100 7.8729
43.9200 9.3112
43.9300 9.5709
43.9400 7.8454
43.9500 9.1540
43.9600 6.8021
43.9700 11.1883
43.9800 5.5929
43.9900 10.0438
44.0000 7.6001
44.0100 8.3474
44.0200 11.7159
44.0300 12.8988
44.0400 10.9804
44.0500 12.7335
44.0600 6.0741
44.0700 6.1782
44.0800 10.4623
44.0900 7.4827
44.1000 11.7828
44.1100 4.0220
44.1200 9.8144
44.1300 11.8368
44.1400 8.5509
44.1500 5.1264
44.1600 9.8578
44.1700 11.7367
44.1800 12.4030
44.1900 17.6924
44.2000 12.7632
44.2100 17.2483
44.2200 13.8417
44.2300 15.5626
44.2400 14.8412
44.2500 22.7384
44.2600 18.8763
44.2700 21.4701
44.2800 19.4846
44.2900 14.9228
44.3000 25.0987
44.3100 31.0475
44.3200 36.2355
44.3300 41.3792
44.3400 30.8285
44.3500 46.2291
44.3600 56.3409
44.3700 53.2579
44.3800 92.2472
44.3900 97.7813
44.4000 101.7362
44.4100 95.7890
44.4200 79.6631
44.4300 100.0186
44.4400 114.1243
44.4500 138.9616
44.4600 162.3171
44.4700 169.8626
44.4800 174.8606
44.4900 157.4435
44.5000 174.6915
44.5100 150.1146
44.5200 165.6540
44.5300 152.7619
44.5400 165.3849
44.5500 149.0941
44.5600 151.0286
44.5700 138.3710
44.5800 150.8381
44.5900 129.1722
44.6000 108.5939
44.6100 83.8620
44.6200 109.2117
44.6300 71.7412
44.6400 74.6301
44.6500 64.5540
44.6600 55.7979
44.6700 57.6119
44.6800 45.9144
44.6900 45.3181
44.7000 34.4032
44.7100 27.2527
44.7200 32.3892
44.7300 26.4024
44.7400 19.5728
44.7500 16.4223
44.7600 19.8711
44.7700 18.8384
44.7800 12.3131
44.7900 18.6855
44.8000 19.9693
44.8100 15.6686
44.8200 13.5718
44.8300 10.1400
44.8400 8.1796
44.8500 10.6986
44.8600 12.6188
44.8700 13.2486
44.8800 19.0633
44.8900 27.7142
44.9000 13.4553
44.9100 25.1884
44.9200 11.9231
44.9300 8.8178
44.9400 14.0991
44.9500 7.4619
44.9600 8.4620
44.9700 6.3878
44.9800 11.7059
44.9900 7.7237
45.0000 12.1603
45.0100 4.5453
45.0200 9.8311
45.0300 3.4980
45.0400 7.8094
45.0500 9.0265
45.0600 4.2204
45.0700 6.5837
45.0800 6.6458
45.0900 8.7944
45.1000 4.3004
45.1100 7.9249
45.1200 8.1666
45.1300 5.2670
45.1400 3.6993
45.1500 8.8775
45.1600 9.8851
45.1700 10.2990
45.1800 6.3261
45.1900 7.7280
45.2000 9.3705
45.2100 9.6804
45.2200 7.5584
45.2300 11.7118
45.2400 9.8160
45.2500 6.2940
45.2600 6.8010
45.2700 6.8759
45.2800 6.1426
45.2900 9.2553
45.3000 8.5542
45.3100 6.7374
45.3200 9.5216
45.3300 8.8629
45.3400 9.9585
45.3500 4.6089
45.3600 3.4893
45.3700 6.5189
45.3800 6.3641
45.3900 3.9714
45.4000 10.7630
45.4100 12.5937
45.4200 4.4557
45.4300 5.6178
45.4400 9.9209
45.4500 4.9862
45.4600 8.1950
45.4700 4.0992
45.4800 5.0118
45.4900 6.9944
45.5000 9.9972
45.5100 3.5458
45.5200 10.3190
45.5300 4.4579
45.5400 5.9179
45.5500 4.6902
45.5600 10.2037
45.5700 4.4833
45.5800 9.2011
45.5900 4.8729
45.6000 6.1388
45.6100 4.4886
45.6200 4.7773
45.6300 3.7356
45.6400 11.6574
45.6500 6.3986
45.6600 8.2485
45.6700 6.1062
45.6800 2.4963
45.6900 11.7086
45.7000 8.1542
45.7100 3.9294
45.7200 8.8812
45.7300 6.6030
45.7400 6.4330
45.7500 4.4956
45.7600 4.7119
45.7700 4.1786
45.7800 7.6028
45.7900 5.3754
45.8000 9.1687
45.8100 11.7009
45.8200 4.8306
45.8300 4.1278
45.8400 12.0429
45.8500 3.2474
45.8600 1.9249
45.8700 2.9447
45.8800 2.1444
45.8900 5.3207
45.9000 9.4626
45.9100 8.2371
45.9200 6.3615
45.9300 2.2053
45.9400 7.1705
45.9500 5.8308
45.9600 7.0676
45.9700 3.6065
45.9800 6.0329
45.9900 6.7204
46.0000 8.8658
46.0100 6.5808
46.0200 6.2068
46.0300 2.2734
46.0400 2.8477
46.0500 5.8348
46.0600 7.5769
46.0700 3.8343
46.0800 3.5487
46.0900 8.1487
46.1000 7.0857
46.1100 4.1664
46.1200 3.3273
46.1300 4.2044
46.1400 3.5830
46.1500 2.0186
46.1600 6.1867
46.1700 10.5684
46.1800 4.9348
46.1900 6.6901
46.2000 3.0238
46.2100 2.4334
46.2200 4.8813
46.2300 6.3973
46.2400 4.3948
46.2500 4.6830
46.2600 7.6951
46.2700 4.2018
46.2800 6.9347
46.2900 13.2811
46.3000 7.5845
46.3100 15.4446
46.3200 9.1225
46.3300 9.4817
46.3400 10.7028
46.3500 5.5096
46.3600 9.2707
46.3700 4.9387
46.3800 7.3295
46.3900 7.0955
46.4000 7.2837
46.4100 9.1690
46.4200 4.9108
46.4300 5.9182
46.4400 10.6029
46.4500 4.1544
46.4600 4.1998
46.4700 5.6138
46.4800 3.8381
46.4900 6.8134
46.5000 6.2691
46.5100 7.4290
46.5200 8.4371
46.5300 10.9394
46.5400 6.2267
46.5500 4.3274
46.5600 5.9407
46.5700 6.3604
46.5800 4.3464
46.5900 7.1701
46.6000 7.3857
46.6100 8.4446
46.6200 9.4277
46.6300 2.8129
46.6400 10.0859
46.6500 5.5738
46.6600 8.1925
46.6700 3.7209
46.6800 6.0606
46.6900 5.7668
46.7000 8.3038
46.7100 8.3373
46.7200 8.9446
46.7300 7.5949
46.7400 4.3215
46.7500 6.4700
46.7600 2.0142
46.7700 4.8924
46.7800 5.8025
46.7900 6.8351
46.8000 10.5866
46.8100 8.8981
46.8200 7.5474
46.8300 4.3534
46.8400 6.0678
46.8500 2.6996
46.8600 1.5054
46.8700 8.8626
46.8800 8.3456
46.8900 4.9677
46.9000 5.1367
46.9100 3.6679
46.9200 9.4133
46.9300 5.8719
46.9400 12.2028
46.9500 9.0822
46.9600 10.5150
46.9700 8.3176
46.9800 8.4333
46.9900 9.6231
47.0000 11.0826
47.0100 8.6634
47.0200 5.8531
47.0300 8.4774
47.0400 6.5434
47.0500 9.8588
47.0600 5.8156
47.0700 12.5134
47.0800 4.9583
47.0900 10.6902
47.1000 10.2797
47.1100 6.3978
47.1200 8.5761
47.1300 5.5749
47.1400 11.5896
47.1500 4.4477
47.1600 3.9091
47.1700 4.6243
47.1800 6.8035
47.1900 6.4589
47.2000 9.1501
47.2100 6.3218
47.2200 5.3783
47.2300 6.3918
47.2400 9.6560
47.2500 7.7939
47.2600 7.6151
47.2700 10.9562
47.2800 6.7459
47.2900 9.8371
47.3000 7.7286
47.3100 9.5003
47.3200 16.6536
47.3300 10.6322
47.3400 11.8729
47.3500 6.5508
47.3600 9.3114
47.3700 3.0872
47.3800 7.6056
47.3900 8.0653
47.4000 2.7454
47.4100 5.9306
47.4200 6.3903
47.4300 2.9044
47.4400 6.5045
47.4500 6.1495
47.4600 5.4593
47.4700 6.1612
47.4800 3.7890
47.4900 9.7914
47.5000 7.2146
47.5100 5.7129
47.5200 6.2094
47.5300 7.3209
47.5400 14.0282
47.5500 10.2306
47.5600 9.4709
47.5700 8.8043
47.5800 2.1808
47.5900 9.9123
47.6000 4.5562
47.6100 9.6294
47.6200 5.7008
47.6300 8.9469
47.6400 3.1293
47.6500 3.4130
47.6600 3.9295
47.6700 10.9783
47.6800 8.3336
47.6900 6.1566
47.7000 5.8824
47.7100 11.1528
47.7200 3.8177
47.7300 7.4933
47.7400 6.3164
47.7500 6.4565
47.7600 7.4973
47.7700 3.4440
47.7800 5.0396
47.7900 7.0374
47.8000 5.2842
47.8100 5.6450
47.8200 7.3914
47.8300 3.6865
47.8400 10.8204
47.8500 4.6179
47.8600 8.2926
47.8700 8.2420
47.8800 9.3521
47.8900 7.2932
47.9000 5.3178
47.9100 5.6949
47.9200 6.7738
47.9300 8.5054
47.9400 8.1383
47.9500 8.9126
47.9600 7.5962
47.9700 3.4294
47.9800 3.5566
47.9900 3.1328
48.0000 5.2754
48.0100 11.0297
48.0200 3.5908
48.0300 10.4803
48.0400 5.4742
48.0500 5.1886
48.0600 8.4457
48.0700 7.1938
48.0800 7.3304
48.0900 7.3311
48.1000 8.1190
48.1100 9.8608
48.1200 9.7973
48.1300 9.1537
48.1400 5.3011
48.1500 5.5768
48.1600 8.1779
48.1700 6.6423
48.1800 5.2241
48.1900 3.2434
48.2000 5.9268
48.2100 5.1668
48.2200 7.0595
48.2300 3.1179
48.2400 5.0062
48.2500 5.5102
48.2600 3.2916
48.2700 7.3665
48.2800 4.6123
48.2900 8.2458
48.3000 7.8487
48.3100 6.3115
48.3200 8.6079
48.3300 5.5827
48.3400 8.2219
48.3500 10.9793
48.3600 3.3984
48.3700 2.8903
48.3800 3.3546
48.3900 5.6788
48.4000 3.0972
48.4100 5.9084
48.4200 5.2864
48.4300 7.2646
48.4400 3.1834
48.4500 3.6429
48.4600 10.3690
48.4700 9.7143
48.4800 4.6463
48.4900 7.6754
48.5000 3.2049
48.5100 7.3057
48.5200 4.1394
48.5300 4.2269
48.5400 5.3902
48.5500 4.4987
48.5600 6.0339
48.5700 4.3910
48.5800 5.6922
48.5900 5.0507
48.6000 5.2043
48.6100 8.0724
48.6200 10.1805
48.6300 6.2622
48.6400 2.0807
48.6500 5.4576
48.6600 5.7785
48.6700 2.0552
48.6800 8.2672
48.6900 6.6219
48.7000 6.8293
48.7100 7.7515
48.7200 14.5608
48.7300 9.9742
48.7400 3.3670
48.7500 8.0766
48.7600 7.4083
48.7700 5.2085
48.7800 4.2161
48.7900 6.4066
48.8000 5.3924
48.8100 3.8470
48.8200 3.3317
48.8300 4.9274
48.8400 4.3719
48.8500 6.9568
48.8600 2.8755
48.8700 4.3721
48.8800 2.3465
48.8900 4.9281
48.9000 5.8904
48.9100 5.4739
48.9200 3.8869
48.9300 3.0507
48.9400 8.0460
48.9500 11.1924
48.9600 4.1731
48.9700 8.6188
48.9800 3.4061
48.9900 4.2155
49.0000 3.7285
49.0100 6.1878
49.0200 4.2581
49.0300 3.1807
49.0400 5.2294
49.0500 5.1266
49.0600 7.6912
49.0700 8.1766
49.0800 9.3256
49.0900 14.3060
49.1000 7.0295
49.1100 8.3913
49.1200 6.7091
49.1300 6.5520
49.1400 7.4234
49.1500 10.8311
49.1600 3.4999
49.1700 5.1582
49.1800 6.6225
49.1900 6.3663
49.2000 1.9020
49.2100 5.4195
49.2200 6.8013
49.2300 11.4851
49.2400 3.4458
49.2500 12.6479
49.2600 3.2417
49.2700 7.3960
49.2800 7.2679
49.2900 10.1238
49.3000 7.7336
49.3100 7.8033
49.3200 4.9865
49.3300 3.8925
49.3400 3.2443
49.3500 10.5169
49.3600 4.2571
49.3700 7.8521
49.3800 4.2868
49.3900 6.1739
49.4000 6.5430
49.4100 2.9732
49.4200 10.4520
49.4300 5.2608
49.4400 3.8886
49.4500 2.7480
49.4600 5.6960
49.4700 3.4619
49.4800 4.9632
49.4900 8.9495
49.5000 2.4725
49.5100 7.6719
49.5200 6.1535
49.5300 11.9999
49.5400 7.3761
49.5500 4.2802
49.5600 5.1442
49.5700 5.0462
49.5800 4.1625
49.5900 7.7352
49.6000 3.3079
49.6100 5.7436
49.6200 6.1618
49.6300 4.3095
49.6400 5.7817
49.6500 5.5983
49.6600 3.6742
49.6700 7.0476
49.6800 4.8662
49.6900 6.2123
49.7000 5.0713
49.7100 4.3416
49.7200 4.3065
49.7300 6.9249
49.7400 3.9202
49.7500 2.7103
49.7600 3.9775
49.7700 4.7771
49.7800 6.6752
49.7900 3.4015
49.8000 5.1678
49.8100 5.1864
49.8200 1.7946
49.8300 3.0591
49.8400 4.3374
49.8500 6.0937
49.8600 11.0087
49.8700 4.9805
49.8800 6.5637
49.8900 4.3001
49.9000 6.1818
49.9100 2.2830
49.9200 8.7517
49.9300 4.6418
49.9400 3.4115
49.9500 3.3758
49.9600 3.3892
49.9700 8.1084
49.9800 5.5504
49.9900 11.7314
50.0000 3.1455
50.0100 10.3036
50.0200 5.8899
50.0300 9.7641
50.0400 7.0048
50.0500 6.5312
50.0600 3.6027
50.0700 5.8604
50.0800 5.3880
50.0900 4.9935
50.1000 6.4447
50.1100 5.3020
50.1200 6.4864
50.1300 9.0756
50.1400 4.8381
50.1500 3.6580
50.1600 4.3529
50.1700 8.3823
50.1800 9.7294
50.1900 7.0072
50.2000 6.5257
50.2100 5.7709
50.2200 6.3801
50.2300 3.0859
50.2400 3.4685
50.2500 5.6084
50.2600 5.7068
50.2700 2.9708
50.2800 4.4996
50.2900 6.3197
50.3000 6.9417
50.3100 5.6351
50.3200 7.5123
50.3300 7.5079
50.3400 4.9682
50.3500 3.1655
50.3600 3.9021
50.3700 3.6996
50.3800 4.7110
50.3900 3.9972
50.4000 6.8015
50.4100 4.7805
50.4200 3.6560
50.4300 6.8531
50.4400 7.7613
50.4500 7.2923
50.4600 7.4758
50.4700 5.3787
50.4800 7.7902
50.4900 5.2412
50.5000 5.4420
50.5100 4.7550
50.5200 9.2865
50.5300 9.8285
50.5400 10.5826
50.5500 6.0569
50.5600 8.9025
50.5700 4.3783
50.5800 2.3901
50.5900 4.1609
50.6000 5.2470
50.6100 3.9444
50.6200 2.7149
50.6300 7.4083
50.6400 5.4167
50.6500 6.0800
50.6600 3.6983
50.6700 6.0137
50.6800 7.7764
50.6900 3.9343
50.7000 1.7187
50.7100 4.7371
50.7200 6.7278
50.7300 4.4116
50.7400 3.9800
50.7500 3.2956
50.7600 6.9817
50.7700 8.0523
50.7800 3.7267
50.7900 5.1155
50.8000 9.3761
50.8100 5.5797
50.8200 6.9068
50.8300 3.0152
50.8400 6.3362
50.8500 5.3456
50.8600 6.5118
50.8700 3.5280
50.8800 5.7413
50.8900 13.0868
50.9000 7.3990
50.9100 5.3301
50.9200 5.6942
50.9300 4.7304
50.9400 4.2006
50.9500 4.9555
50.9600 8.3602
50.9700 7.3256
50.9800 6.8784
50.9900 6.4982
51.0000 4.5206
51.0100 7.3352
51.0200 5.3489
51.0300 13.3177
51.0400 6.7273
51.0500 5.7671
51.0600 8.8497
51.0700 4.5582
51.0800 7.4314
51.0900 9.9168
51.1000 9.0019
51.1100 7.3002
51.1200 5.6966
51.1300 9.8566
51.1400 7.5234
51.1500 8.0447
51.1600 10.3375
51.1700 8.0630
51.1800 10.1468
51.1900 7.1284
51.2000 11.0883
51.2100 7.1920
51.2200 8.3465
51.2300 10.0529
51.2400 5.2409
51.2500 5.9087
51.2600 7.5688
51.2700 10.3857
51.2800 7.6647
51.2900 8.1306
51.3000 3.6496
51.3100 1.0806
51.3200 2.2662
51.3300 11.3502
51.3400 9.3251
51.3500 6.6606
51.3600 6.9932
51.3700 11.1154
51.3800 3.9683
51.3900 8.5013
51.4000 5.5564
51.4100 6.5335
51.4200 7.3297
51.4300 6.9527
51.4400 6.0403
51.4500 5.4123
51.4600 10.4884
51.4700 9.6851
51.4800 8.9537
51.4900 10.2634
51.5000 3.4606
51.5100 9.4985
51.5200 10.4563
51.5300 10.4987
51.5400 3.8478
51.5500 6.0728
51.5600 2.5287
51.5700 4.8834
51.5800 3.0203
51.5900 8.9557
51.6000 8.3294
51.6100 3.3358
51.6200 4.4610
51.6300 6.2743
51.6400 5.4477
51.6500 9.1197
51.6600 16.2997
51.6700 6.9671
51.6800 7.4508
51.6900 8.1735
51.7000 5.6256
51.7100 9.2782
51.7200 6.3615
51.7300 9.2492
51.7400 5.7933
51.7500 5.3470
51.7600 5.1029
51.7700 3.6252
51.7800 8.9934
51.7900 10.6569
51.8000 4.6749
51.8100 8.2021
51.8200 6.3964
51.8300 5.1145
51.8400 10.5701
51.8500 6.4486
51.8600 4.6236
51.8700 7.9621
51.8800 5.9049
51.8900 4.4476
51.9000 4.9752
51.9100 9.1732
51.9200 3.1551
51.9300 1.1963
51.9400 7.2786
51.9500 10.0664
51.9600 9.0960
51.9700 10.1853
51.9800 5.5021
51.9900 2.5748
52.0000 4.9578
52.0100 10.5980
52.0200 12.1785
52.0300 7.2700
52.0400 6.6338
52.0500 8.6424
52.0600 4.0843
52.0700 8.1252
52.0800 8.2548
52.0900 5.7528
52.1000 9.9204
52.1100 5.6833
52.1200 5.7896
52.1300 10.3037
52.1400 6.1202
52.1500 6.4183
52.1600 4.9519
52.1700 7.9337
52.1800 9.5656
52.1900 6.5569
52.2000 3.4250
52.2100 5.0344
52.2200 7.6669
52.2300 5.4447
52.2400 5.0210
52.2500 7.4337
52.2600 13.5979
52.2700 7.9889
52.2800 9.0182
52.2900 8.9029
