#Collected Data-26
#Intensity_unit=counts
#Attenuator_coefficient=1.000000
40.0000 6.2084
40.0100 2.4598
40.0200 5.2228
40.0300 6.9419
40.0400 4.9265
40.0500 5.6010
40.0600 14.4253
40.0700 7.6867
40.0800 8.1816
40.0900 9.4543
40.1000 0.9799
40.1100 6.5586
40.1200 7.4144
40.1300 6.2122
40.1400 6.5519
40.1500 3.1424
40.1600 4.0506
40.1700 5.3290
40.1800 4.3191
40.1900 9.0121
40.2000 5.4846
40.2100 9.8312
40.2200 5.8647
40.2300 7.2022
40.2400 7.2208
40.2500 9.5136
40.2600 8.7998
40.2700 6.2169
40.2800 6.0944
40.2900 4.9073
40.3000 12.6791
40.3100 8.7116
40.3200 5.9615
40.3300 8.3312
40.3400 9.5260
40.3500 14.8772
40.3600 7.0905
40.3700 13.2422
40.3800 8.9049
40.3900 14.7847
40.4000 9.7176
40.4100 5.9527
40.4200 7.8101
40.4300 7.8607
40.4400 9.3419
40.4500 4.6593
40.4600 9.9683
40.4700 9.1914
40.4800 5.4451
40.4900 6.9431
40.5000 2.9948
40.5100 5.8222
40.5200 9.0727
40.5300 5.2880
40.5400 7.2015
40.5500 5.1641
40.5600 4.3146
40.5700 11.2807
40.5800 9.8217
40.5900 6.3026
40.6000 4.8893
40.6100 6.5253
40.6200 6.9408
40.6300 7.9828
40.6400 11.1016
40.6500 7.2434
40.6600 7.8676
40.6700 6.7372
40.6800 4.4785
40.6900 6.1608
40.7000 4.4302
40.7100 5.4711
40.7200 7.3629
40.7300 6.7955
40.7400 8.9067
40.7500 4.7553
40.7600 7.0528
40.7700 6.9490
40.7800 7.7893
40.7900 8.3369
40.8000 7.0805
40.8100 7.9719
40.8200 6.2858
40.8300 2.7850
40.8400 2.0639
40.8500 8.1150
40.8600 2.2221
40.8700 7.4009
40.8800 8.7451
40.8900 7.6897
40.9000 7.1291
40.9100 5.3109
40.9200 10.9727
40.9300 3.2798
40.9400 5.8540
40.9500 1.6467
40.9600 5.9023
40.9700 4.3253
40.9800 6.6403
40.9900 0.1916
41.0000 3.9721
41.0100 11.6275
41.0200 5.2312
41.0300 9.3661
41.0400 8.2605
41.0500 8.4359
41.0600 9.1739
41.0700 5.0721
41.0800 6.9379
41.0900 3.9394
41.1000 8.4203
41.1100 6.3918
41.1200 7.4953
41.1300 5.6540
41.1400 7.0321
41.1500 5.5090
41.1600 5.1444
41.1700 3.2094
41.1800 5.6065
41.1900 6.9586
41.2000 7.7968
41.2100 13.1364
41.2200 5.5932
41.2300 10.7137
41.2400 2.0865
41.2500 4.1067
41.2600 6.9132
41.2700 5.1686
41.2800 5.5624
41.2900 1.7126
41.3000 5.5900
41.3100 6.9220
41.3200 6.1555
41.3300 6.3988
41.3400 9.0349
41.3500 4.6458
41.3600 10.9078
41.3700 8.5520
41.3800 8.2826
41.3900 7.6009
41.4000 5.9384
41.4100 3.7294
41.4200 10.3735
41.4300 4.4264
41.4400 13.0189
41.4500 10.3643
41.4600 9.1746
41.4700 8.9821
41.4800 7.6017
41.4900 5.3795
41.5000 11.5944
41.5100 10.1668
41.5200 10.4688
41.5300 2.4758
41.5400 6.3729
41.5500 8.7056
41.5600 5.0387
41.5700 4.4384
41.5800 6.1271
41.5900 6.0297
41.6000 8.0897
41.6100 6.5734
41.6200 7.4866
41.6300 5.5353
41.6400 6.4316
41.6500 8.2573
41.6600 8.5429
41.6700 7.5494
41.6800 7.8962
41.6900 5.8355
41.7000 6.0074
41.7100 7.9346
41.7200 3.1236
41.7300 10.3140
41.7400 2.9176
41.7500 5.0613
41.7600 4.2739
41.7700 5.4946
41.7800 5.9309
41.7900 9.1600
41.8000 7.7549
41.8100 5.9477
41.8200 6.2827
41.8300 2.5346
41.8400 5.7257
41.8500 4.0274
41.8600 5.2608
41.8700 3.1021
41.8800 5.8058
41.8900 7.9089
41.9000 8.5396
41.9100 3.5672
41.9200 5.8896
41.9300 5.5174
41.9400 4.0496
41.9500 7.0160
41.9600 3.9744
41.9700 4.5371
41.9800 5.9845
41.9900 7.5021
42.0000 7.3123
42.0100 14.0976
42.0200 10.3907
42.0300 6.2481
42.0400 5.5860
42.0500 6.3851
42.0600 9.3543
42.0700 11.5485
42.0800 7.1100
42.0900 12.2908
42.1000 6.9062
42.1100 7.7915
42.1200 6.2976
42.1300 6.8122
42.1400 7.0366
42.1500 6.2864
42.1600 6.3734
42.1700 5.2096
42.1800 5.1471
42.1900 5.7024
42.2000 8.6718
42.2100 9.4800
42.2200 8.5900
42.2300 5.1181
42.2400 12.5897
42.2500 9.0525
42.2600 7.6434
42.2700 6.5318
42.2800 4.4320
42.2900 7.7233
42.3000 7.5183
42.3100 7.7400
42.3200 14.9597
42.3300 14.1992
42.3400 15.1836
42.3500 21.5081
42.3600 11.7420
42.3700 11.0279
42.3800 10.5804
42.3900 14.1711
42.4000 6.6590
42.4100 6.0988
42.4200 9.2763
42.4300 4.3332
42.4400 2.1563
42.4500 3.7540
42.4600 2.8785
42.4700 5.7831
42.4800 10.0400
42.4900 5.2587
42.5000 6.0943
42.5100 7.7637
42.5200 5.4597
42.5300 6.5115
42.5400 3.1153
42.5500 11.1059
42.5600 6.7277
42.5700 7.7826
42.5800 8.6241
42.5900 5.3502
42.6000 5.2819
42.6100 7.0203
42.6200 4.8568
42.6300 9.8396
42.6400 6.1499
42.6500 3.1468
42.6600 5.9920
42.6700 5.0303
42.6800 5.0380
42.6900 6.0704
42.7000 5.9844
42.7100 2.2770
42.7200 6.6468
42.7300 7.6951
42.7400 5.5004
42.7500 6.7327
42.7600 7.1972
42.7700 1.7591
42.7800 5.5004
42.7900 9.8285
42.8000 11.8845
42.8100 5.1611
42.8200 6.6234
42.8300 8.2597
42.8400 11.7654
42.8500 11.2646
42.8600 7.7366
42.8700 7.0744
42.8800 6.6949
42.8900 6.6859
42.9000 9.7812
42.9100 7.2275
42.9200 7.1208
42.9300 10.0800
42.9400 10.4196
42.9500 7.1598
42.9600 6.8802
42.9700 10.6982
42.9800 6.8165
42.9900 7.4482
43.0000 10.4020
43.0100 8.3297
43.0200 9.1137
43.0300 12.4369
43.0400 8.8691
43.0500 5.1579
43.0600 9.8695
43.0700 5.4746
43.0800 7.5345
43.0900 8.3236
43.1000 10.6403
43.1100 8.0708
43.1200 17.6431
43.1300 1.7019
43.1400 7.6452
43.1500 6.4928
43.1600 5.1697
43.1700 2.8385
43.1800 6.1624
43.1900 3.4731
43.2000 9.7116
43.2100 6.8329
43.2200 12.8673
43.2300 7.5065
43.2400 9.3457
43.2500 8.9083
43.2600 4.3741
43.2700 7.0588
43.2800 8.8131
43.2900 6.9195
43.3000 8.7526
43.3100 7.8841
43.3200 5.4936
43.3300 8.2504
43.3400 7.4163
43.3500 8.3723
43.3600 7.1336
43.3700 7.6016
43.3800 2.8148
43.3900 9.1868
43.4000 9.5491
43.4100 8.5247
43.4200 15.9184
43.4300 4.9253
43.4400 4.1291
43.4500 3.0846
43.4600 2.1161
43.4700 7.2901
43.4800 6.9522
43.4900 5.9301
43.5000 4.7935
43.5100 7.0103
43.5200 8.7386
43.5300 6.4038
43.5400 7.0994
43.5500 8.2451
43.5600 9.5346
43.5700 4.0730
43.5800 5.5266
43.5900 6.4510
43.6000 8.4419
43.6100 4.4947
43.6200 5.9199
43.6300 5.3813
43.6400 2.1497
43.6500 7.9207
43.6600 6.6113
43.6700 5.5874
43.6800 4.1089
43.6900 5.0159
43.7000 6.4076
43.7100 2.2397
43.7200 5.1843
43.7300 8.3965
43.7400 8.4215
43.7500 6.6159
43.7600 9.2757
43.7700 5.9723
43.7800 9.4638
43.7900 5.0099
43.8000 7.7184
43.8100 6.6333
43.8200 6.1777
43.8300 7.7774
43.8400 9.3495
43.8500 9.8858
43.8600 8.6844
43.8700 6.4209
43.8800 5.3142
43.8900 8.1268
43.9000 7.7325
43.9100 5.2092
43.9200 9.8259
43.9300 3.5626
43.9400 7.5504
43.9500 2.8094
43.9600 9.6610
43.9700 4.5389
43.9800 5.5226
43.9900 8.6101
44.0000 9.8863
44.0100 7.7837
44.0200 7.9910
44.0300 8.7425
44.0400 10.8163
44.0500 9.7687
44.0600 4.7110
44.0700 7.2679
44.0800 13.1743
44.0900 10.4405
44.1000 17.8590
44.1100 13.4890
44.1200 10.9677
44.1300 9.5723
44.1400 12.6109
44.1500 7.3977
44.1600 10.6757
44.1700 12.4653
44.1800 14.3132
44.1900 11.0614
44.2000 8.7834
44.2100 15.8341
44.2200 14.0237
44.2300 13.9694
44.2400 21.4063
44.2500 22.3027
44.2600 20.3312
44.2700 18.2448
44.2800 31.3353
44.2900 21.3091
44.3000 34.7543
44.3100 41.5840
44.3200 47.6371
44.3300 33.4711
44.3400 48.1824
44.3500 54.6290
44.3600 51.7066
44.3700 64.8182
44.3800 97.8021
44.3900 86.4349
44.4000 89.6919
44.4100 115.8940
44.4200 117.5273
44.4300 136.8086
44.4400 117.3440
44.4500 158.1185
44.4600 157.4794
44.4700 165.2727
44.4800 190.4971
44.4900 174.5488
44.5000 192.5945
44.5100 201.6445
44.5200 223.5205
44.5300 227.5617
44.5400 216.7386
44.5500 206.7365
44.5600 203.6378
44.5700 195.5048
44.5800 208.3063
44.5900 189.5809
44.6000 171.3756
44.6100 164.7418
44.6200 173.8874
44.6300 137.6157
44.6400 126.2859
44.6500 92.7055
44.6600 82.3530
44.6700 92.1714
44.6800 77.3581
44.6900 68.9785
44.7000 59.5090
44.7100 50.9012
44.7200 43.0042
44.7300 33.6530
44.7400 35.1471
44.7500 25.1465
44.7600 28.7875
44.7700 25.7648
44.7800 22.5107
44.7900 16.3180
44.8000 20.6611
44.8100 15.1114
44.8200 18.3760
44.8300 13.9961
44.8400 12.7861
44.8500 11.2089
44.8600 15.7215
44.8700 11.3492
44.8800 8.8210
44.8900 9.2941
44.9000 5.8425
44.9100 6.8429
44.9200 8.5525
44.9300 8.3863
44.9400 10.5238
44.9500 10.2889
44.9600 6.9416
44.9700 9.5044
44.9800 7.9197
44.9900 6.4528
45.0000 8.2859
45.0100 8.5421
45.0200 8.4981
45.0300 8.2541
45.0400 2.0372
45.0500 4.1935
45.0600 10.7370
45.0700 11.5477
45.0800 8.7503
45.0900 2.7848
45.1000 3.9894
45.1100 4.1697
45.1200 5.2236
45.1300 4.2901
45.1400 8.2634
45.1500 6.2325
45.1600 5.2811
45.1700 4.6491
45.1800 5.6247
45.1900 2.5546
45.2000 3.3329
45.2100 1.0030
45.2200 2.7732
45.2300 0.3220
45.2400 11.3699
45.2500 8.5654
45.2600 4.8684
45.2700 7.3469
45.2800 4.8570
45.2900 4.6587
45.3000 6.1833
45.3100 6.2608
45.3200 9.0339
45.3300 3.8449
45.3400 11.8112
45.3500 4.8848
45.3600 4.2075
45.3700 5.9633
45.3800 4.1732
45.3900 7.9488
45.4000 4.6116
45.4100 3.7708
45.4200 3.0734
45.4300 7.2349
45.4400 4.6584
45.4500 8.6282
45.4600 5.6302
45.4700 14.6189
45.4800 3.0240
45.4900 3.3279
45.5000 4.8435
45.5100 10.9522
45.5200 10.1108
45.5300 7.3827
45.5400 7.8556
45.5500 3.4256
45.5600 6.2530
45.5700 6.4605
45.5800 5.2360
45.5900 6.7684
45.6000 6.6725
45.6100 6.3499
45.6200 7.2318
45.6300 7.3531
45.6400 4.3861
45.6500 5.3602
45.6600 3.1655
45.6700 5.2852
45.6800 7.4255
45.6900 5.4174
45.7000 10.8635
45.7100 6.3747
45.7200 3.6434
45.7300 4.8044
45.7400 6.1773
45.7500 7.0268
45.7600 8.8637
45.7700 6.2535
45.7800 3.3440
45.7900 5.2471
45.8000 4.3128
45.8100 9.5227
45.8200 10.0993
45.8300 6.7343
45.8400 5.1079
45.8500 8.2386
45.8600 6.2601
45.8700 5.9654
45.8800 6.1496
45.8900 7.4288
45.9000 4.4086
45.9100 6.2958
45.9200 6.0065
45.9300 5.4533
45.9400 3.1440
45.9500 4.5903
45.9600 4.1062
45.9700 5.8201
45.9800 6.2038
45.9900 10.0374
46.0000 3.1273
46.0100 6.6506
46.0200 5.1407
46.0300 9.7815
46.0400 7.2003
46.0500 6.7431
46.0600 3.5089
46.0700 4.7904
46.0800 10.6663
46.0900 8.2908
46.1000 7.3791
46.1100 6.0915
46.1200 2.9001
46.1300 2.0573
46.1400 7.0362
46.1500 4.4662
46.1600 7.7525
46.1700 8.4298
46.1800 7.2411
46.1900 1.4479
46.2000 9.1711
46.2100 6.8495
46.2200 6.0295
46.2300 5.9940
46.2400 10.0625
46.2500 5.8562
46.2600 5.4649
46.2700 2.8886
46.2800 5.8319
46.2900 4.4463
46.3000 5.0867
46.3100 2.0327
46.3200 1.2426
46.3300 2.1866
46.3400 10.0237
46.3500 10.7479
46.3600 3.7746
46.3700 12.7572
46.3800 9.2006
46.3900 8.8060
46.4000 11.9072
46.4100 6.6351
46.4200 8.0603
46.4300 4.9363
46.4400 8.1729
46.4500 4.5879
46.4600 5.7555
46.4700 7.0487
46.4800 7.4408
46.4900 4.0050
46.5000 9.2488
46.5100 6.6008
46.5200 4.3863
46.5300 8.2149
46.5400 12.3072
46.5500 7.2436
46.5600 12.0908
46.5700 8.2460
46.5800 15.6462
46.5900 3.1537
46.6000 8.1753
46.6100 8.0103
46.6200 14.9567
46.6300 2.0292
46.6400 3.6572
46.6500 8.9354
46.6600 7.3512
46.6700 12.8557
46.6800 10.4590
46.6900 10.6717
46.7000 10.1277
46.7100 9.9423
46.7200 4.7648
46.7300 3.7558
46.7400 8.2589
46.7500 3.8111
46.7600 3.0391
46.7700 5.3528
46.7800 6.0330
46.7900 6.4671
46.8000 6.0202
46.8100 9.0171
46.8200 3.8353
46.8300 13.1299
46.8400 8.4005
46.8500 10.1685
46.8600 6.5439
46.8700 6.5034
46.8800 6.8403
46.8900 5.8058
46.9000 4.5094
46.9100 4.4653
46.9200 6.2383
46.9300 4.5627
46.9400 4.2261
46.9500 3.0635
46.9600 3.0988
46.9700 1.7496
46.9800 6.0057
46.9900 9.4535
47.0000 5.1998
47.0100 5.8569
47.0200 5.2071
47.0300 5.7740
47.0400 2.0729
47.0500 7.2637
47.0600 5.7118
47.0700 8.5974
47.0800 4.7833
47.0900 6.1545
47.1000 5.7440
47.1100 6.3623
47.1200 8.7009
47.1300 9.6198
47.1400 7.4936
47.1500 8.2513
47.1600 5.2957
47.1700 6.2254
47.1800 8.7164
47.1900 3.7980
47.2000 7.1861
47.2100 3.7136
47.2200 6.7370
47.2300 5.4177
47.2400 5.1899
47.2500 5.6719
47.2600 8.5956
47.2700 13.3526
47.2800 14.5557
47.2900 8.6581
47.3000 7.4076
47.3100 5.1773
47.3200 9.2929
47.3300 4.6141
47.3400 6.3569
47.3500 6.9355
47.3600 5.7573
47.3700 6.2096
47.3800 9.0457
47.3900 7.3249
47.4000 5.2052
47.4100 8.5175
47.4200 5.1657
47.4300 6.2772
47.4400 6.6397
47.4500 9.6946
47.4600 8.2053
47.4700 12.5186
47.4800 9.7056
47.4900 6.9576
47.5000 5.1940
47.5100 3.6304
47.5200 8.3054
47.5300 6.5575
47.5400 8.8006
47.5500 6.3614
47.5600 8.4225
47.5700 6.1343
47.5800 6.2837
47.5900 4.5341
47.6000 5.1150
47.6100 4.5870
47.6200 5.0568
47.6300 5.6248
47.6400 7.7973
47.6500 8.5287
47.6600 6.3668
47.6700 9.8331
47.6800 9.2440
47.6900 6.0023
47.7000 3.6431
47.7100 8.8159
47.7200 6.6008
47.7300 4.1596
47.7400 5.4080
47.7500 6.2069
47.7600 4.2603
47.7700 10.2686
47.7800 10.4014
47.7900 9.2833
47.8000 8.2727
47.8100 4.5102
47.8200 5.7925
47.8300 6.0843
47.8400 7.8324
47.8500 6.8086
47.8600 4.7256
47.8700 6.5982
47.8800 6.3845
47.8900 6.1621
47.9000 5.3863
47.9100 5.3357
47.9200 7.2949
47.9300 7.1806
47.9400 8.4131
47.9500 10.4397
47.9600 6.5258
47.9700 3.3799
47.9800 8.4126
47.9900 7.5007
48.0000 13.1781
48.0100 4.5304
48.0200 7.7467
48.0300 5.8167
48.0400 10.7363
48.0500 3.7436
48.0600 11.1497
48.0700 3.5872
48.0800 5.5581
48.0900 7.4509
48.1000 13.4601
48.1100 6.4800
48.1200 11.6729
48.1300 8.2968
48.1400 17.9933
48.1500 10.5443
48.1600 14.4750
48.1700 13.4898
48.1800 8.8336
48.1900 10.0300
48.2000 2.9212
48.2100 14.0970
48.2200 5.2839
48.2300 6.6528
48.2400 6.0149
48.2500 7.4175
48.2600 8.5240
48.2700 5.9348
48.2800 4.1133
48.2900 5.4724
48.3000 3.2289
48.3100 5.3761
48.3200 9.6558
48.3300 5.9029
48.3400 7.1107
48.3500 5.5562
48.3600 6.2900
48.3700 6.7360
48.3800 6.7103
48.3900 7.7146
48.4000 4.9840
48.4100 7.1828
48.4200 3.9674
48.4300 3.1284
48.4400 3.6786
48.4500 5.3342
48.4600 5.7489
48.4700 14.0218
48.4800 8.0872
48.4900 5.7598
48.5000 2.2738
48.5100 7.8129
48.5200 10.0087
48.5300 11.4656
48.5400 6.5511
48.5500 4.8397
48.5600 7.0319
48.5700 9.0097
48.5800 6.7357
48.5900 6.7373
48.6000 11.1485
48.6100 7.8082
48.6200 7.3353
48.6300 10.3340
48.6400 9.1810
48.6500 7.2653
48.6600 4.6488
48.6700 7.5603
48.6800 7.3294
48.6900 9.0998
48.7000 10.7947
48.7100 8.3334
48.7200 7.5186
48.7300 6.9045
48.7400 8.2504
48.7500 4.0092
48.7600 4.8287
48.7700 8.2222
48.7800 6.4121
48.7900 8.0550
48.8000 2.5230
48.8100 4.8827
48.8200 3.5484
48.8300 2.5320
48.8400 10.2495
48.8500 7.7744
48.8600 5.5160
48.8700 3.7875
48.8800 7.2875
48.8900 2.6119
48.9000 9.1532
48.9100 5.3105
48.9200 3.9008
48.9300 5.3284
48.9400 5.3115
48.9500 6.3958
48.9600 4.6444
48.9700 7.4026
48.9800 9.7650
48.9900 3.2792
49.0000 10.6116
49.0100 5.7334
49.0200 12.7049
49.0300 8.9184
49.0400 8.0162
49.0500 3.3222
49.0600 4.1776
49.0700 5.4432
49.0800 4.1308
49.0900 7.0164
49.1000 11.3444
49.1100 8.7275
49.1200 8.5034
49.1300 7.1228
49.1400 5.9042
49.1500 5.2929
49.1600 6.1462
49.1700 8.3695
49.1800 8.6477
49.1900 8.6494
49.2000 6.1338
49.2100 5.9706
49.2200 8.3980
49.2300 4.6656
49.2400 4.0513
49.2500 4.0722
49.2600 6.2063
49.2700 8.4188
49.2800 5.9639
49.2900 6.8059
49.3000 9.8248
49.3100 9.3316
49.3200 7.8675
49.3300 6.6332
49.3400 10.1313
49.3500 4.1516
49.3600 9.2538
49.3700 8.5459
49.3800 15.6582
49.3900 6.9496
49.4000 3.4421
49.4100 8.0695
49.4200 8.1461
49.4300 10.4064
49.4400 7.1851
49.4500 9.3643
49.4600 8.4336
49.4700 4.4821
49.4800 8.0853
49.4900 7.7009
49.5000 7.1519
49.5100 3.8166
49.5200 5.5564
49.5300 4.1997
49.5400 1.5673
49.5500 4.4683
49.5600 4.3778
49.5700 4.3705
49.5800 6.1708
49.5900 4.2410
49.6000 4.3450
49.6100 5.7254
49.6200 9.0642
49.6300 8.0471
49.6400 12.9544
49.6500 9.2511
49.6600 9.4090
49.6700 6.2161
49.6800 14.4178
49.6900 3.5680
49.7000 3.1701
49.7100 4.3536
49.7200 2.7203
49.7300 7.7720
49.7400 3.2260
49.7500 4.4068
49.7600 6.8001
49.7700 3.5934
49.7800 5.5699
49.7900 4.9142
49.8000 7.3932
49.8100 3.4315
49.8200 6.5735
49.8300 6.8480
49.8400 4.7259
49.8500 5.7897
49.8600 2.7640
49.8700 4.2948
49.8800 8.8500
49.8900 6.4059
49.9000 6.3373
49.9100 1.3854
49.9200 4.9360
49.9300 4.0372
49.9400 6.5298
49.9500 8.1410
49.9600 4.0121
49.9700 7.4128
49.9800 4.9671
49.9900 9.9559
50.0000 3.0607
50.0100 13.6938
50.0200 6.9313
50.0300 12.6879
50.0400 8.1549
50.0500 4.4681
50.0600 9.2420
50.0700 5.6374
50.0800 6.1294
50.0900 1.5813
50.1000 7.6297
50.1100 9.2605
50.1200 8.3247
50.1300 8.3445
50.1400 7.7067
50.1500 7.5062
50.1600 5.5043
50.1700 5.3308
50.1800 7.3771
50.1900 3.4473
50.2000 6.7808
50.2100 8.8882
50.2200 7.9693
50.2300 7.3554
50.2400 5.8429
50.2500 5.7597
50.2600 8.3966
50.2700 7.9881
50.2800 4.1947
50.2900 5.2479
50.3000 3.6315
50.3100 1.9123
50.3200 4.0610
50.3300 5.1944
50.3400 8.1996
50.3500 5.2793
50.3600 7.8895
50.3700 2.9898
50.3800 4.1730
50.3900 2.8639
50.4000 6.4847
50.4100 4.5206
50.4200 5.9063
50.4300 5.1992
50.4400 8.4597
50.4500 10.7460
50.4600 5.2982
50.4700 8.7266
50.4800 8.3904
50.4900 9.4750
50.5000 5.9773
50.5100 6.1931
50.5200 3.3502
50.5300 5.1462
50.5400 6.2616
50.5500 7.0437
50.5600 2.2136
50.5700 7.2698
50.5800 6.0048
50.5900 7.1881
50.6000 3.7312
50.6100 3.7262
50.6200 6.3321
50.6300 5.2596
50.6400 7.1633
50.6500 8.1484
50.6600 5.8155
50.6700 3.4214
50.6800 5.8391
50.6900 7.1143
50.7000 5.2983
50.7100 4.5699
50.7200 3.3600
50.7300 4.5829
50.7400 2.3995
50.7500 10.0141
50.7600 8.7162
50.7700 2.0266
50.7800 8.0956
50.7900 5.0644
50.8000 12.7662
50.8100 4.9752
50.8200 9.1212
50.8300 7.0602
50.8400 5.8860
50.8500 6.3300
50.8600 1.7746
50.8700 4.1692
50.8800 3.0305
50.8900 4.9355
50.9000 5.2983
50.9100 4.0807
50.9200 8.1475
50.9300 3.7047
50.9400 7.5683
50.9500 5.5736
50.9600 8.2831
50.9700 5.5516
50.9800 3.6484
50.9900 1.7974
51.0000 4.8886
51.0100 6.4745
51.0200 7.7673
51.0300 4.8307
51.0400 4.8698
51.0500 5.6702
51.0600 7.3647
51.0700 6.3929
51.0800 7.1416
51.0900 1.3719
51.1000 6.1294
51.1100 3.5679
51.1200 6.2373
51.1300 4.6675
51.1400 10.0157
51.1500 7.6993
51.1600 5.8038
51.1700 7.1929
51.1800 6.0802
51.1900 5.3386
51.2000 9.0491
51.2100 6.9500
51.2200 7.9312
51.2300 4.2783
51.2400 5.5078
51.2500 6.6353
51.2600 4.6646
51.2700 6.2106
51.2800 5.0539
51.2900 6.4518
51.3000 7.7933
51.3100 9.0188
51.3200 8.1795
51.3300 6.0266
51.3400 2.6634
51.3500 6.5050
51.3600 7.6036
51.3700 8.3477
51.3800 8.6659
51.3900 7.4551
51.4000 6.1792
51.4100 7.9289
51.4200 7.8365
51.4300 6.3750
51.4400 3.9663
51.4500 8.9774
51.4600 10.7597
51.4700 9.1990
51.4800 4.8243
51.4900 6.3483
51.5000 8.3314
51.5100 3.5720
51.5200 5.3935
51.5300 1.1081
51.5400 7.0095
51.5500 5.2542
51.5600 8.7128
51.5700 4.5378
51.5800 8.2291
51.5900 10.4195
51.6000 7.2507
51.6100 4.1507
51.6200 7.4787
51.6300 4.3158
51.6400 4.4365
51.6500 6.0410
51.6600 5.8539
51.6700 7.6854
51.6800 5.1357
51.6900 6.2015
51.7000 8.2128
51.7100 5.2282
51.7200 6.6843
51.7300 10.0466
51.7400 6.2882
51.7500 3.8459
51.7600 4.7427
51.7700 6.1780
51.7800 7.6209
51.7900 9.5535
51.8000 7.7978
51.8100 5.4732
51.8200 4.6530
51.8300 6.5750
51.8400 4.1884
51.8500 6.5605
51.8600 6.6083
51.8700 4.3896
51.8800 6.4919
51.8900 7.2552
51.9000 11.7668
51.9100 7.5421
51.9200 7.1901
51.9300 4.5289
51.9400 6.8707
51.9500 2.8971
51.9600 6.1698
51.9700 4.1560
51.9800 4.7749
51.9900 5.9275
52.0000 3.7713
52.0100 8.4155
52.0200 3.5952
52.0300 7.4593
52.0400 5.5189
52.0500 7.1196
52.0600 2.1468
52.0700 2.6147
52.0800 2.0218
52.0900 3.2032
52.1000 9.6966
52.1100 6.4891
52.1200 6.0677
52.1300 1.3193
52.1400 7.0356
52.1500 4.2861
52.1600 2.7316
52.1700 6.2077
52.1800 7.8651
52.1900 8.3651
52.2000 6.4535
52.2100 8.6280
52.2200 4.9551
52.2300 6.3497
52.2400 5.1334
52.2500 6.4931
52.2600 9.6828
52.2700 5.6727
52.2800 5.3211
52.2900 7.6923
52.3000 9.9786
