#Collected Data-22
#Intensity_unit=counts
#Attenuator_coefficient=1.000000
40.0000 11.3049
40.0100 12.1648
40.0200 10.7785
40.0300 9.2805
40.0400 6.1968
40.0500 12.1006
40.0600 8.3553
40.0700 11.1087
40.0800 12.0440
40.0900 13.6167
40.1000 13.2945
40.1100 11.4812
40.1200 7.6161
40.1300 9.9690
40.1400 8.7614
40.1500 11.5655
40.1600 15.5125
40.1700 8.1778
40.1800 17.1216
40.1900 5.8729
40.2000 9.2416
40.2100 10.1372
40.2200 9.0554
40.2300 10.0908
40.2400 9.1134
40.2500 11.7873
40.2600 8.7119
40.2700 5.2325
40.2800 6.7201
40.2900 10.3639
40.3000 5.0344
40.3100 9.6740
40.3200 9.1322
40.3300 7.0603
40.3400 10.8840
40.3500 17.4817
40.3600 10.1930
40.3700 15.1660
40.3800 9.8534
40.3900 11.1005
40.4000 5.6169
40.4100 8.4525
40.4200 10.0498
40.4300 10.0002
40.4400 4.9046
40.4500 12.4174
40.4600 11.2461
40.4700 8.1048
40.4800 5.1255
40.4900 6.9899
40.5000 17.3650
40.5100 8.0590
40.5200 7.4792
40.5300 11.3468
40.5400 11.6200
40.5500 7.3489
40.5600 8.8684
40.5700 9.6590
40.5800 12.8840
40.5900 12.0419
40.6000 12.5961
40.6100 15.4130
40.6200 14.6050
40.6300 9.9500
40.6400 11.7200
40.6500 11.6775
40.6600 11.4101
40.6700 14.2177
40.6800 16.1097
40.6900 14.4659
40.7000 6.7728
40.7100 8.1773
40.7200 10.0094
40.7300 7.2713
40.7400 8.1445
40.7500 7.0168
40.7600 9.3061
40.7700 14.5948
40.7800 7.2370
40.7900 10.2043
40.8000 8.3464
40.8100 12.4531
40.8200 13.4194
40.8300 13.1035
40.8400 9.7521
40.8500 8.4504
40.8600 7.5148
40.8700 5.4349
40.8800 4.8893
40.8900 13.0943
40.9000 8.6539
40.9100 9.8412
40.9200 6.2084
40.9300 12.3041
40.9400 9.4953
40.9500 10.2973
40.9600 7.9421
40.9700 5.7633
40.9800 4.3459
40.9900 15.1220
41.0000 7.5473
41.0100 8.3316
41.0200 13.3345
41.0300 8.2200
41.0400 9.0241
41.0500 7.3102
41.0600 11.3901
41.0700 10.9859
41.0800 9.4177
41.0900 12.9707
41.1000 8.5309
41.1100 9.0703
41.1200 7.0239
41.1300 11.6612
41.1400 8.0955
41.1500 10.8431
41.1600 8.8245
41.1700 8.2921
41.1800 11.7024
41.1900 17.3763
41.2000 8.8994
41.2100 12.5353
41.2200 12.5516
41.2300 6.4599
41.2400 8.7864
41.2500 8.0765
41.2600 8.5623
41.2700 12.1469
41.2800 15.8752
41.2900 12.8064
41.3000 18.5962
41.3100 15.4589
41.3200 8.5568
41.3300 15.4797
41.3400 13.3030
41.3500 15.5525
41.3600 13.0937
41.3700 12.1478
41.3800 17.3005
41.3900 9.5989
41.4000 10.3101
41.4100 6.3897
41.4200 11.9917
41.4300 14.7129
41.4400 21.3085
41.4500 13.3413
41.4600 7.4825
41.4700 9.3933
41.4800 9.5992
41.4900 15.8485
41.5000 12.3534
41.5100 13.7075
41.5200 13.4808
41.5300 16.1580
41.5400 7.5982
41.5500 12.1595
41.5600 10.1429
41.5700 15.4243
41.5800 10.1303
41.5900 15.9782
41.6000 15.5307
41.6100 11.6361
41.6200 16.3894
41.6300 9.3261
41.6400 16.3232
41.6500 7.6464
41.6600 8.3919
41.6700 10.5486
41.6800 6.7277
41.6900 9.8150
41.7000 11.9376
41.7100 16.0800
41.7200 10.2192
41.7300 21.1357
41.7400 13.9290
41.7500 22.3466
41.7600 10.7498
41.7700 10.7259
41.7800 10.1225
41.7900 10.0491
41.8000 12.7082
41.8100 10.8679
41.8200 6.3659
41.8300 13.6195
41.8400 10.2581
41.8500 13.7704
41.8600 6.1098
41.8700 12.0569
41.8800 5.5639
41.8900 6.0595
41.9000 7.5708
41.9100 10.3065
41.9200 8.3484
41.9300 12.7121
41.9400 9.8221
41.9500 11.5879
41.9600 7.5963
41.9700 11.5016
41.9800 10.3765
41.9900 8.0483
42.0000 9.6405
42.0100 8.4165
42.0200 10.1759
42.0300 5.1605
42.0400 4.8768
42.0500 13.8806
42.0600 6.7374
42.0700 8.0284
42.0800 10.5344
42.0900 7.1671
42.1000 7.6949
42.1100 9.1205
42.1200 10.9632
42.1300 13.3912
42.1400 8.8900
42.1500 8.1623
42.1600 8.5640
42.1700 7.0740
42.1800 6.7679
42.1900 12.9551
42.2000 7.4303
42.2100 7.1658
42.2200 7.5034
42.2300 10.8337
42.2400 4.9203
42.2500 12.6516
42.2600 10.8919
42.2700 7.3635
42.2800 9.2344
42.2900 4.2423
42.3000 4.2566
42.3100 6.1763
42.3200 13.8063
42.3300 7.7590
42.3400 6.2543
42.3500 11.2813
42.3600 6.3804
42.3700 5.3231
42.3800 12.4598
42.3900 6.8679
42.4000 9.1967
42.4100 9.4309
42.4200 10.3937
42.4300 6.6718
42.4400 8.3747
42.4500 11.5386
42.4600 9.2699
42.4700 8.9061
42.4800 7.4277
42.4900 9.4546
42.5000 11.3856
42.5100 5.8033
42.5200 13.7641
42.5300 12.0613
42.5400 7.7096
42.5500 8.2412
42.5600 9.5471
42.5700 12.3221
42.5800 6.6207
42.5900 8.2534
42.6000 9.5140
42.6100 12.4341
42.6200 8.0946
42.6300 5.9721
42.6400 9.8552
42.6500 12.6213
42.6600 7.0466
42.6700 11.7601
42.6800 9.3360
42.6900 10.9943
42.7000 15.7920
42.7100 14.5326
42.7200 7.2807
42.7300 7.8834
42.7400 9.4861
42.7500 8.8758
42.7600 11.6032
42.7700 9.0815
42.7800 14.0519
42.7900 6.0029
42.8000 9.9744
42.8100 10.0385
42.8200 11.9278
42.8300 4.3240
42.8400 5.7371
42.8500 10.0794
42.8600 7.9034
42.8700 11.3611
42.8800 9.7786
42.8900 6.5812
42.9000 6.6405
42.9100 12.5816
42.9200 10.4279
42.9300 16.1898
42.9400 8.0562
42.9500 7.0227
42.9600 11.2736
42.9700 12.6758
42.9800 7.7484
42.9900 8.9426
43.0000 12.2348
43.0100 6.6507
43.0200 10.2152
43.0300 11.6691
43.0400 15.4074
43.0500 12.7909
43.0600 14.3500
43.0700 6.3826
43.0800 11.4003
43.0900 5.9892
43.1000 12.0977
43.1100 8.3222
43.1200 12.0839
43.1300 10.6009
43.1400 11.0541
43.1500 11.0476
43.1600 10.9558
43.1700 10.2359
43.1800 9.7934
43.1900 9.2127
43.2000 12.7299
43.2100 6.0491
43.2200 10.2276
43.2300 9.4967
43.2400 9.0657
43.2500 10.0170
43.2600 7.7514
43.2700 16.5090
43.2800 9.1611
43.2900 7.5862
43.3000 10.6011
43.3100 13.5744
43.3200 7.7144
43.3300 12.2928
43.3400 3.5115
43.3500 8.6545
43.3600 8.0168
43.3700 10.3026
43.3800 9.3902
43.3900 6.2339
43.4000 7.2317
43.4100 8.9790
43.4200 8.1691
43.4300 15.4046
43.4400 14.8500
43.4500 22.9330
43.4600 8.8515
43.4700 18.4768
43.4800 9.8575
43.4900 15.5713
43.5000 14.1463
43.5100 11.1627
43.5200 7.6527
43.5300 8.7039
43.5400 7.5774
43.5500 10.7822
43.5600 14.4617
43.5700 15.8710
43.5800 14.4647
43.5900 14.8009
43.6000 9.6175
43.6100 8.9699
43.6200 14.3816
43.6300 13.4000
43.6400 8.9576
43.6500 9.3346
43.6600 12.2796
43.6700 8.4664
43.6800 11.3477
43.6900 13.9631
43.7000 14.5917
43.7100 13.9213
43.7200 8.0071
43.7300 8.9397
43.7400 9.5169
43.7500 12.0543
43.7600 10.5405
43.7700 4.4224
43.7800 14.4432
43.7900 11.0772
43.8000 5.2852
43.8100 6.4053
43.8200 13.7760
43.8300 11.0254
43.8400 5.6465
43.8500 6.7702
43.8600 8.5109
43.8700 9.1701
43.8800 7.8394
43.8900 5.9611
43.9000 3.1598
43.9100 7.8714
43.9200 10.3928
43.9300 12.9948
43.9400 14.8300
43.9500 11.3529
43.9600 9.8991
43.9700 12.3654
43.9800 5.2125
43.9900 8.0830
44.0000 8.4393
44.0100 14.8476
44.0200 12.8284
44.0300 13.0982
44.0400 10.1827
44.0500 10.0985
44.0600 11.1425
44.0700 20.1701
44.0800 3.5624
44.0900 5.1652
44.1000 7.7110
44.1100 10.6546
44.1200 7.1840
44.1300 8.3389
44.1400 9.8719
44.1500 12.3509
44.1600 9.8814
44.1700 11.4714
44.1800 15.5573
44.1900 8.3622
44.2000 12.1814
44.2100 12.0445
44.2200 8.1856
44.2300 10.7939
44.2400 10.1107
44.2500 13.2931
44.2600 9.3382
44.2700 11.1975
44.2800 10.0208
44.2900 7.9889
44.3000 14.4840
44.3100 13.8264
44.3200 15.5301
44.3300 14.5833
44.3400 19.0649
44.3500 13.7074
44.3600 18.0527
44.3700 12.9939
44.3800 15.6128
44.3900 10.9775
44.4000 7.3307
44.4100 7.6544
44.4200 11.6749
44.4300 15.5947
44.4400 7.5002
44.4500 10.4605
44.4600 9.7146
44.4700 7.6061
44.4800 10.9561
44.4900 9.0486
44.5000 6.3169
44.5100 9.3218
44.5200 10.0577
44.5300 10.8959
44.5400 7.8563
44.5500 8.0702
44.5600 8.7893
44.5700 11.3903
44.5800 9.2782
44.5900 9.6072
44.6000 6.3328
44.6100 12.4427
44.6200 12.6405
44.6300 8.3992
44.6400 7.5264
44.6500 6.9107
44.6600 7.6151
44.6700 10.2474
44.6800 8.5203
44.6900 4.3905
44.7000 11.0459
44.7100 11.6097
44.7200 7.2163
44.7300 6.8645
44.7400 10.8890
44.7500 3.5430
44.7600 10.9305
44.7700 12.1516
44.7800 9.9230
44.7900 12.1399
44.8000 10.0237
44.8100 9.5017
44.8200 9.4533
44.8300 10.0031
44.8400 5.4085
44.8500 9.1901
44.8600 13.4041
44.8700 12.1167
44.8800 10.5649
44.8900 7.5397
44.9000 9.7929
44.9100 14.5892
44.9200 11.5212
44.9300 11.6268
44.9400 14.1679
44.9500 6.4932
44.9600 9.1185
44.9700 8.2571
44.9800 7.9529
44.9900 13.6586
45.0000 8.7054
45.0100 4.9769
45.0200 15.5796
45.0300 15.2426
45.0400 12.1094
45.0500 9.7387
45.0600 8.9103
45.0700 9.5010
45.0800 8.3384
45.0900 7.7590
45.1000 5.2679
45.1100 10.0290
45.1200 15.9017
45.1300 18.8171
45.1400 11.1930
45.1500 19.0235
45.1600 20.2686
45.1700 20.0634
45.1800 18.0772
45.1900 13.1463
45.2000 16.4872
45.2100 17.4049
45.2200 16.4051
45.2300 17.6735
45.2400 17.7126
45.2500 15.4929
45.2600 20.5433
45.2700 14.8477
45.2800 23.6709
45.2900 19.2613
45.3000 24.0136
45.3100 21.3973
45.3200 29.9118
45.3300 25.9077
45.3400 31.3572
45.3500 37.7328
45.3600 41.8345
45.3700 34.9923
45.3800 54.8447
45.3900 68.4403
45.4000 67.1426
45.4100 87.7606
45.4200 115.0370
45.4300 138.3788
45.4400 167.9994
45.4500 203.5515
45.4600 263.5936
45.4700 324.2989
45.4800 400.7686
45.4900 462.6849
45.5000 532.3754
45.5100 600.6551
45.5200 626.5709
45.5300 689.6672
45.5400 667.4911
45.5500 629.1414
45.5600 583.1251
45.5700 515.7609
45.5800 422.8524
45.5900 382.3725
45.6000 305.6172
45.6100 253.4235
45.6200 212.1213
45.6300 149.7746
45.6400 113.2975
45.6500 95.5512
45.6600 73.3718
45.6700 66.6908
45.6800 45.3803
45.6900 32.5151
45.7000 30.6024
45.7100 32.7156
45.7200 32.6812
45.7300 16.6045
45.7400 25.6764
45.7500 24.8304
45.7600 21.7975
45.7700 10.0616
45.7800 21.9028
45.7900 14.6250
45.8000 15.8842
45.8100 9.6256
45.8200 12.7139
45.8300 15.5329
45.8400 14.5037
45.8500 15.5476
45.8600 11.3853
45.8700 20.4866
45.8800 18.9916
45.8900 18.7953
45.9000 10.8202
45.9100 12.4696
45.9200 12.5395
45.9300 11.2309
45.9400 11.1679
45.9500 7.4091
45.9600 11.0528
45.9700 9.9075
45.9800 10.6322
45.9900 7.1575
46.0000 9.9053
46.0100 8.2721
46.0200 6.2343
46.0300 13.3024
46.0400 13.8264
46.0500 10.2269
46.0600 6.7912
46.0700 6.6466
46.0800 7.0748
46.0900 8.3112
46.1000 10.3299
46.1100 3.0807
46.1200 7.5973
46.1300 9.0290
46.1400 8.9395
46.1500 14.4885
46.1600 11.8829
46.1700 9.1575
46.1800 10.7861
46.1900 11.5714
46.2000 17.2093
46.2100 9.4640
46.2200 13.6814
46.2300 11.5296
46.2400 12.8058
46.2500 10.6606
46.2600 12.5796
46.2700 5.8986
46.2800 13.7340
46.2900 11.0942
46.3000 9.4746
46.3100 12.3940
46.3200 6.3765
46.3300 14.0396
46.3400 13.8201
46.3500 7.4304
46.3600 8.4306
46.3700 4.1287
46.3800 5.1511
46.3900 11.1463
46.4000 8.3722
46.4100 9.3398
46.4200 6.5818
46.4300 9.9854
46.4400 7.2073
46.4500 8.4468
46.4600 9.4085
46.4700 11.9214
46.4800 9.6797
46.4900 5.7900
46.5000 7.3494
46.5100 6.2053
46.5200 8.3279
46.5300 7.9340
46.5400 10.2733
46.5500 12.4016
46.5600 14.3847
46.5700 13.3296
46.5800 14.0248
46.5900 9.2708
46.6000 9.4750
46.6100 8.5519
46.6200 14.5710
46.6300 6.5996
46.6400 7.9449
46.6500 7.2253
46.6600 9.8470
46.6700 14.4841
46.6800 9.1437
46.6900 12.0781
46.7000 8.0688
46.7100 13.8902
46.7200 12.7888
46.7300 9.6000
46.7400 15.5344
46.7500 9.3858
46.7600 8.1227
46.7700 7.2050
46.7800 8.8951
46.7900 11.3769
46.8000 7.3310
46.8100 11.4144
46.8200 8.3953
46.8300 9.7129
46.8400 7.1554
46.8500 5.1510
46.8600 11.8256
46.8700 10.0035
46.8800 11.3169
46.8900 6.9856
46.9000 7.7431
46.9100 7.3182
46.9200 10.9470
46.9300 5.6870
46.9400 10.4477
46.9500 13.4711
46.9600 11.3158
46.9700 9.1843
46.9800 5.6341
46.9900 10.8117
47.0000 9.3837
47.0100 12.2472
47.0200 7.0039
47.0300 10.5263
47.0400 10.6387
47.0500 10.2583
47.0600 10.3248
47.0700 10.5529
47.0800 12.0377
47.0900 10.0724
47.1000 10.7908
47.1100 10.1677
47.1200 8.7740
47.1300 7.5086
47.1400 14.2721
47.1500 10.6833
47.1600 16.6572
47.1700 10.5085
47.1800 12.7224
47.1900 11.0692
47.2000 13.5099
47.2100 17.0323
47.2200 23.5729
47.2300 10.7359
47.2400 12.1038
47.2500 11.2527
47.2600 5.7344
47.2700 13.4579
47.2800 8.9493
47.2900 7.9528
47.3000 9.8411
47.3100 8.8300
47.3200 11.4763
47.3300 9.7916
47.3400 6.1209
47.3500 12.4062
47.3600 9.5673
47.3700 7.0831
47.3800 4.6825
47.3900 7.2251
47.4000 8.7950
47.4100 7.0619
47.4200 12.1016
47.4300 8.1551
47.4400 8.0094
47.4500 5.2396
47.4600 8.7090
47.4700 12.8646
47.4800 8.8583
47.4900 11.0658
47.5000 7.1069
47.5100 13.8457
47.5200 8.6410
47.5300 6.2130
47.5400 5.3499
47.5500 7.0551
47.5600 9.3342
47.5700 10.1273
47.5800 7.0818
47.5900 9.4108
47.6000 7.6222
47.6100 4.5360
47.6200 4.8822
47.6300 9.1936
47.6400 5.4206
47.6500 11.2120
47.6600 9.0415
47.6700 3.6164
47.6800 9.9667
47.6900 8.2526
47.7000 7.1187
47.7100 6.6983
47.7200 7.0290
47.7300 10.9855
47.7400 13.0457
47.7500 9.4911
47.7600 6.9852
47.7700 10.1155
47.7800 9.4660
47.7900 9.6035
47.8000 8.6372
47.8100 11.1730
47.8200 9.7663
47.8300 16.0235
47.8400 14.1300
47.8500 5.6568
47.8600 7.7061
47.8700 10.5525
47.8800 11.2738
47.8900 6.9336
47.9000 5.8928
47.9100 7.4281
47.9200 14.5913
47.9300 9.8683
47.9400 8.9286
47.9500 18.2127
47.9600 7.6756
47.9700 10.0838
47.9800 10.5794
47.9900 12.4654
48.0000 8.4361
48.0100 9.7550
48.0200 4.3604
48.0300 9.1231
48.0400 8.6586
48.0500 9.6392
48.0600 4.5629
48.0700 5.7962
48.0800 8.1978
48.0900 9.4135
48.1000 7.4188
48.1100 4.6202
48.1200 12.8402
48.1300 13.0180
48.1400 9.2704
48.1500 7.5350
48.1600 7.0493
48.1700 9.5854
48.1800 11.1876
48.1900 4.3139
48.2000 6.9998
48.2100 6.3550
48.2200 10.2977
48.2300 10.9540
48.2400 9.0185
48.2500 7.6628
48.2600 8.8278
48.2700 13.4712
48.2800 9.0772
48.2900 11.9527
48.3000 4.9539
48.3100 8.7143
48.3200 2.0634
48.3300 1.7089
48.3400 8.1191
48.3500 8.2751
48.3600 5.6448
48.3700 6.5357
48.3800 9.7370
48.3900 5.4848
48.4000 7.9877
48.4100 10.4014
48.4200 9.6031
48.4300 13.9640
48.4400 5.0333
48.4500 9.0511
48.4600 8.7719
48.4700 7.5514
48.4800 7.9929
48.4900 7.7857
48.5000 9.5895
48.5100 7.4793
48.5200 8.6187
48.5300 8.3467
48.5400 4.0381
48.5500 8.5663
48.5600 6.3366
48.5700 7.2210
48.5800 4.5973
48.5900 4.7464
48.6000 11.1573
48.6100 10.2555
48.6200 15.2412
48.6300 6.6074
48.6400 6.6043
48.6500 6.2345
48.6600 12.8573
48.6700 12.6777
48.6800 9.7714
48.6900 8.0636
48.7000 3.4086
48.7100 9.2155
48.7200 10.2966
48.7300 14.3254
48.7400 7.5221
48.7500 8.6214
48.7600 8.7819
48.7700 7.7516
48.7800 11.2610
48.7900 9.5368
48.8000 11.5664
48.8100 11.7443
48.8200 6.4582
48.8300 9.7689
48.8400 11.6840
48.8500 6.2393
48.8600 6.8139
48.8700 8.6256
48.8800 4.9629
48.8900 11.2781
48.9000 10.4525
48.9100 8.1851
48.9200 5.7208
48.9300 6.5203
48.9400 7.2342
48.9500 8.4845
48.9600 5.3363
48.9700 8.4119
48.9800 9.4339
48.9900 11.4255
49.0000 6.2550
49.0100 6.3442
49.0200 9.1800
49.0300 11.0467
49.0400 7.6079
49.0500 8.3862
49.0600 6.7143
49.0700 6.4480
49.0800 8.6327
49.0900 11.2975
49.1000 8.9646
49.1100 7.1837
49.1200 7.3076
49.1300 8.4572
49.1400 8.4276
49.1500 8.9657
49.1600 9.8507
49.1700 8.4735
49.1800 6.9576
49.1900 4.9113
49.2000 5.6219
49.2100 10.0743
49.2200 7.6535
49.2300 6.9134
49.2400 5.5939
49.2500 9.0380
49.2600 11.2388
49.2700 8.5222
49.2800 14.5211
49.2900 5.9646
49.3000 11.8437
49.3100 15.1102
49.3200 12.5250
49.3300 17.5253
49.3400 10.6670
49.3500 17.6648
49.3600 13.3845
49.3700 14.9554
49.3800 15.7629
49.3900 14.7372
49.4000 6.9994
49.4100 7.2334
49.4200 11.7396
49.4300 7.3205
49.4400 7.5676
49.4500 8.7475
49.4600 5.1702
49.4700 5.6099
49.4800 5.4471
49.4900 3.4952
49.5000 5.3008
49.5100 7.8124
49.5200 5.8629
49.5300 9.2666
49.5400 7.3692
49.5500 4.0254
49.5600 7.6909
49.5700 7.2103
49.5800 3.3028
49.5900 7.3986
49.6000 8.5601
49.6100 11.8238
49.6200 10.5660
49.6300 9.6521
49.6400 8.0790
49.6500 5.8629
49.6600 7.8934
49.6700 6.0130
49.6800 13.9854
49.6900 6.9519
49.7000 14.9919
49.7100 5.0541
49.7200 7.1694
49.7300 11.6953
49.7400 13.2097
49.7500 8.7205
49.7600 2.8011
49.7700 3.1698
49.7800 12.3053
49.7900 10.4635
49.8000 8.2719
49.8100 10.8141
49.8200 10.1055
49.8300 7.8725
49.8400 12.9078
49.8500 12.3030
49.8600 10.0778
49.8700 6.7441
49.8800 8.3003
49.8900 11.4582
49.9000 6.5766
49.9100 3.3476
49.9200 6.1606
49.9300 10.7864
49.9400 4.6361
49.9500 9.0377
49.9600 9.3716
49.9700 6.5728
49.9800 9.8333
49.9900 2.8295
50.0000 11.3538
50.0100 8.5815
50.0200 15.1882
50.0300 8.5910
50.0400 8.9371
50.0500 8.8337
50.0600 10.3792
50.0700 10.1101
50.0800 7.6982
50.0900 11.1253
50.1000 15.1736
50.1100 12.6991
50.1200 7.3361
50.1300 7.2624
50.1400 5.3510
50.1500 13.1123
50.1600 12.5822
50.1700 10.9922
50.1800 4.8927
50.1900 11.0858
50.2000 11.1564
50.2100 8.7677
50.2200 11.7857
50.2300 9.0080
50.2400 5.2384
50.2500 9.6697
50.2600 7.7090
50.2700 13.1203
50.2800 13.7682
50.2900 6.9039
50.3000 11.9517
50.3100 6.5242
50.3200 7.0308
50.3300 5.4280
50.3400 12.0394
50.3500 4.2744
50.3600 10.5780
50.3700 10.9688
50.3800 7.8517
50.3900 8.0158
50.4000 6.1678
50.4100 6.8427
50.4200 11.1782
50.4300 7.4829
50.4400 12.4717
50.4500 8.1101
50.4600 7.4815
50.4700 6.4571
50.4800 8.1825
50.4900 13.1216
50.5000 10.2458
50.5100 8.3595
50.5200 5.1555
50.5300 7.6519
50.5400 14.5712
50.5500 10.8057
50.5600 12.9672
50.5700 13.0601
50.5800 6.8044
50.5900 18.3250
50.6000 9.7484
50.6100 14.8761
50.6200 9.8383
50.6300 8.2633
50.6400 10.3426
50.6500 7.2687
50.6600 7.3687
50.6700 10.6900
50.6800 10.3525
50.6900 10.0504
50.7000 7.4633
50.7100 10.0257
50.7200 14.4301
50.7300 10.3639
50.7400 9.9132
50.7500 15.2101
50.7600 10.3297
50.7700 9.5524
50.7800 13.2940
50.7900 7.1320
50.8000 8.0001
50.8100 10.2142
50.8200 9.2363
50.8300 10.0841
50.8400 8.5219
50.8500 6.2520
50.8600 9.2313
50.8700 10.3007
50.8800 11.8592
50.8900 7.2198
50.9000 7.6579
50.9100 9.5865
50.9200 16.7216
50.9300 13.5926
50.9400 8.3541
50.9500 8.9075
50.9600 14.9850
50.9700 10.7793
50.9800 14.2106
50.9900 9.9172
51.0000 9.4494
51.0100 9.4362
51.0200 9.2500
51.0300 8.3544
51.0400 4.7029
51.0500 8.3759
51.0600 6.7077
51.0700 9.3680
51.0800 13.3253
51.0900 6.3077
51.1000 9.9054
51.1100 5.1855
51.1200 10.3630
51.1300 7.3868
51.1400 10.0548
51.1500 14.6051
51.1600 7.9095
51.1700 5.7056
51.1800 7.3449
51.1900 6.5448
51.2000 5.4280
51.2100 7.1036
51.2200 9.2348
51.2300 9.2739
51.2400 5.3883
51.2500 2.7637
51.2600 7.1825
51.2700 9.4380
51.2800 7.3492
51.2900 10.8055
51.3000 5.7244
51.3100 5.3261
51.3200 5.7262
51.3300 6.3583
51.3400 4.7739
51.3500 3.7393
51.3600 7.9251
51.3700 9.5533
51.3800 8.5187
51.3900 7.3458
51.4000 8.8739
51.4100 8.1392
51.4200 5.0048
51.4300 8.0934
51.4400 8.9416
51.4500 8.5498
51.4600 9.3166
51.4700 4.8955
51.4800 4.6461
51.4900 6.2950
51.5000 9.0853
51.5100 6.0530
51.5200 8.3093
51.5300 7.7172
51.5400 7.6338
51.5500 13.6682
51.5600 11.0855
51.5700 6.0469
51.5800 10.9632
51.5900 10.8575
51.6000 11.5645
51.6100 11.7002
51.6200 12.2616
51.6300 10.8624
51.6400 6.2145
51.6500 11.1763
51.6600 6.3869
51.6700 10.9043
51.6800 8.8406
51.6900 9.7098
51.7000 6.2433
51.7100 5.8351
51.7200 11.7062
51.7300 9.2399
51.7400 17.4725
51.7500 16.0744
51.7600 15.2144
51.7700 13.7496
51.7800 10.3617
51.7900 11.2495
51.8000 12.8766
51.8100 14.3359
51.8200 3.2719
51.8300 6.1956
51.8400 10.4045
51.8500 7.9313
51.8600 7.3368
51.8700 7.7423
51.8800 8.2902
51.8900 8.2626
51.9000 9.6117
51.9100 6.1751
51.9200 5.4453
51.9300 7.1035
51.9400 7.6760
51.9500 11.8208
51.9600 16.0630
51.9700 12.0821
51.9800 14.2472
51.9900 10.8927
52.0000 12.7365
52.0100 8.7347
52.0200 12.1883
52.0300 6.2357
52.0400 7.8184
52.0500 9.7788
52.0600 12.4713
52.0700 9.0803
