#Collected Data-28
#Intensity_unit=counts
#Attenuator_coefficient=1.000000
40.0000 13.3654
40.0100 7.2121
40.0200 12.9415
40.0300 9.1956
40.0400 7.7803
40.0500 6.9934
40.0600 6.7353
40.0700 10.4354
40.0800 11.4322
40.0900 9.3550
40.1000 8.1317
40.1100 6.8290
40.1200 11.7841
40.1300 8.3186
40.1400 10.1649
40.1500 10.4017
40.1600 8.6429
40.1700 8.3392
40.1800 15.0811
40.1900 10.8144
40.2000 9.0961
40.2100 8.8355
40.2200 6.9604
40.2300 9.6807
40.2400 7.6624
40.2500 11.1229
40.2600 6.4150
40.2700 9.4102
40.2800 5.4777
40.2900 8.3937
40.3000 11.5662
40.3100 6.5097
40.3200 13.1905
40.3300 5.2449
40.3400 13.0838
40.3500 7.2454
40.3600 15.5280
40.3700 6.5894
40.3800 10.0064
40.3900 11.1143
40.4000 13.4663
40.4100 11.7290
40.4200 14.4237
40.4300 9.5427
40.4400 14.0381
40.4500 9.6594
40.4600 6.9159
40.4700 15.0474
40.4800 12.5697
40.4900 4.7065
40.5000 10.9538
40.5100 13.3308
40.5200 10.8412
40.5300 18.7180
40.5400 13.0733
40.5500 14.0885
40.5600 17.9425
40.5700 13.8970
40.5800 13.9033
40.5900 12.4548
40.6000 10.9071
40.6100 17.5828
40.6200 13.2864
40.6300 10.8947
40.6400 13.1155
40.6500 8.0231
40.6600 9.1803
40.6700 12.7773
40.6800 11.4311
40.6900 6.6703
40.7000 12.5013
40.7100 9.2069
40.7200 10.6709
40.7300 7.6369
40.7400 9.9415
40.7500 15.1531
40.7600 16.3601
40.7700 14.4702
40.7800 8.6353
40.7900 12.7758
40.8000 14.5273
40.8100 15.1625
40.8200 12.7067
40.8300 15.5751
40.8400 5.6353
40.8500 12.8554
40.8600 10.0139
40.8700 10.0460
40.8800 12.8994
40.8900 6.5143
40.9000 15.2944
40.9100 11.1856
40.9200 5.7226
40.9300 8.6405
40.9400 6.5039
40.9500 10.6441
40.9600 10.1767
40.9700 7.4877
40.9800 6.9860
40.9900 7.4445
41.0000 7.7665
41.0100 10.9764
41.0200 14.8410
41.0300 7.9069
41.0400 5.4489
41.0500 10.1892
41.0600 14.8535
41.0700 8.4559
41.0800 13.0393
41.0900 6.3707
41.1000 11.2572
41.1100 13.2538
41.1200 6.3715
41.1300 7.4453
41.1400 6.5680
41.1500 13.4129
41.1600 6.9932
41.1700 9.1080
41.1800 15.8013
41.1900 14.8356
41.2000 8.1443
41.2100 9.0772
41.2200 9.2055
41.2300 10.2857
41.2400 9.4986
41.2500 13.8441
41.2600 8.1944
41.2700 15.2794
41.2800 8.9841
41.2900 13.5792
41.3000 9.7451
41.3100 11.4044
41.3200 5.6357
41.3300 11.6686
41.3400 9.9256
41.3500 6.6908
41.3600 6.3668
41.3700 5.0652
41.3800 8.6898
41.3900 7.1500
41.4000 11.7722
41.4100 7.1493
41.4200 8.8730
41.4300 9.5771
41.4400 12.9189
41.4500 14.1960
41.4600 9.4695
41.4700 7.9064
41.4800 10.7179
41.4900 10.8578
41.5000 11.0641
41.5100 9.6499
41.5200 5.5809
41.5300 15.2992
41.5400 3.7052
41.5500 12.6848
41.5600 15.2682
41.5700 9.2474
41.5800 2.9477
41.5900 10.8541
41.6000 10.0921
41.6100 12.1961
41.6200 6.9089
41.6300 9.1829
41.6400 9.2801
41.6500 7.5607
41.6600 8.2296
41.6700 11.8355
41.6800 8.8096
41.6900 9.0232
41.7000 9.4467
41.7100 8.3309
41.7200 14.9002
41.7300 15.5533
41.7400 9.7850
41.7500 9.3030
41.7600 8.3371
41.7700 13.8111
41.7800 10.5075
41.7900 9.5388
41.8000 7.0706
41.8100 13.2164
41.8200 9.9414
41.8300 9.7292
41.8400 7.9913
41.8500 8.1292
41.8600 9.1815
41.8700 9.8187
41.8800 6.2345
41.8900 9.3040
41.9000 12.1326
41.9100 6.7191
41.9200 7.6514
41.9300 5.2608
41.9400 13.9358
41.9500 9.7887
41.9600 14.7344
41.9700 9.2486
41.9800 6.4830
41.9900 9.0125
42.0000 14.0840
42.0100 11.9197
42.0200 11.2367
42.0300 8.4690
42.0400 9.0533
42.0500 13.9631
42.0600 13.8591
42.0700 7.3045
42.0800 5.3568
42.0900 7.6386
42.1000 9.3312
42.1100 9.8737
42.1200 8.1509
42.1300 13.4012
42.1400 6.0472
42.1500 10.5629
42.1600 8.0742
42.1700 12.2225
42.1800 9.9585
42.1900 7.5979
42.2000 7.2501
42.2100 10.0453
42.2200 8.4043
42.2300 10.0238
42.2400 10.9793
42.2500 9.9904
42.2600 12.5270
42.2700 9.3317
42.2800 12.3252
42.2900 8.3908
42.3000 14.2823
42.3100 6.0003
42.3200 9.1631
42.3300 8.9810
42.3400 9.8478
42.3500 7.9923
42.3600 14.8510
42.3700 14.7145
42.3800 16.8805
42.3900 10.4860
42.4000 7.6408
42.4100 10.4192
42.4200 7.7053
42.4300 12.9503
42.4400 12.7944
42.4500 8.3318
42.4600 15.6291
42.4700 10.4881
42.4800 9.3693
42.4900 13.0716
42.5000 8.3635
42.5100 15.7423
42.5200 7.8046
42.5300 14.2247
42.5400 14.1884
42.5500 8.1227
42.5600 12.5856
42.5700 19.9286
42.5800 13.7437
42.5900 9.6994
42.6000 11.5095
42.6100 14.4621
42.6200 10.2774
42.6300 13.3408
42.6400 14.6073
42.6500 9.0494
42.6600 7.7863
42.6700 18.2061
42.6800 12.1866
42.6900 8.6545
42.7000 14.6425
42.7100 19.3486
42.7200 10.0794
42.7300 12.9703
42.7400 8.9653
42.7500 11.3731
42.7600 11.8252
42.7700 10.3508
42.7800 15.3555
42.7900 12.3672
42.8000 8.1835
42.8100 8.2540
42.8200 12.1053
42.8300 9.1274
42.8400 12.5285
42.8500 8.6294
42.8600 10.6237
42.8700 8.5138
42.8800 13.4679
42.8900 14.2288
42.9000 20.2950
42.9100 14.2959
42.9200 4.5616
42.9300 6.1843
42.9400 8.8025
42.9500 8.0317
42.9600 6.4958
42.9700 4.8043
42.9800 6.5330
42.9900 11.5753
43.0000 5.5085
43.0100 11.7336
43.0200 4.3833
43.0300 8.3194
43.0400 12.6360
43.0500 15.4573
43.0600 11.7575
43.0700 9.5306
43.0800 8.5726
43.0900 10.1385
43.1000 9.7021
43.1100 10.8144
43.1200 14.4181
43.1300 8.6546
43.1400 7.5909
43.1500 11.8317
43.1600 9.4520
43.1700 10.3351
43.1800 8.7860
43.1900 5.6462
43.2000 4.1522
43.2100 5.3891
43.2200 11.2785
43.2300 6.3995
43.2400 11.4553
43.2500 10.2723
43.2600 9.2917
43.2700 11.2437
43.2800 7.7860
43.2900 9.1607
43.3000 8.8441
43.3100 9.7710
43.3200 5.0826
43.3300 8.8705
43.3400 7.3104
43.3500 5.2291
43.3600 5.5222
43.3700 3.5428
43.3800 8.5461
43.3900 15.5529
43.4000 10.3059
43.4100 5.4903
43.4200 12.0603
43.4300 12.2942
43.4400 10.3247
43.4500 11.5546
43.4600 11.9944
43.4700 3.9141
43.4800 10.1933
43.4900 10.4204
43.5000 9.2470
43.5100 9.9389
43.5200 9.0473
43.5300 10.6605
43.5400 11.0402
43.5500 4.4277
43.5600 7.3727
43.5700 12.9531
43.5800 12.2845
43.5900 5.8339
43.6000 9.4168
43.6100 11.4313
43.6200 9.9138
43.6300 10.6373
43.6400 12.8035
43.6500 6.9831
43.6600 10.4641
43.6700 5.8983
43.6800 14.1249
43.6900 14.2298
43.7000 18.0020
43.7100 9.9912
43.7200 8.7202
43.7300 7.0684
43.7400 9.2950
43.7500 7.2549
43.7600 9.3549
43.7700 11.8374
43.7800 9.3525
43.7900 11.1825
43.8000 6.8288
43.8100 7.6299
43.8200 11.6285
43.8300 7.2051
43.8400 6.8742
43.8500 11.4444
43.8600 7.7719
43.8700 3.3353
43.8800 6.9887
43.8900 7.0466
43.9000 10.5568
43.9100 7.8327
43.9200 10.5386
43.9300 10.3333
43.9400 9.6055
43.9500 10.3909
43.9600 7.2710
43.9700 8.2365
43.9800 4.1768
43.9900 6.0117
44.0000 13.2113
44.0100 6.8397
44.0200 6.4735
44.0300 8.9529
44.0400 8.1898
44.0500 7.1746
44.0600 5.4822
44.0700 9.2498
44.0800 7.9858
44.0900 5.2641
44.1000 8.8507
44.1100 6.8248
44.1200 7.6123
44.1300 9.2914
44.1400 8.6508
44.1500 8.4609
44.1600 7.6674
44.1700 5.7109
44.1800 8.8245
44.1900 9.0506
44.2000 12.5148
44.2100 7.6426
44.2200 14.8058
44.2300 10.2975
44.2400 11.0588
44.2500 14.9430
44.2600 10.2752
44.2700 8.6983
44.2800 10.3610
44.2900 5.5386
44.3000 9.6687
44.3100 13.6012
44.3200 8.5526
44.3300 9.3039
44.3400 7.9234
44.3500 12.1652
44.3600 12.1916
44.3700 10.5779
44.3800 12.5215
44.3900 5.5210
44.4000 6.7771
44.4100 10.2774
44.4200 10.8179
44.4300 8.1759
44.4400 9.2439
44.4500 8.4708
44.4600 14.1316
44.4700 9.1199
44.4800 9.4648
44.4900 9.4310
44.5000 4.3474
44.5100 10.4439
44.5200 9.3871
44.5300 3.4878
44.5400 10.0673
44.5500 16.0189
44.5600 12.8039
44.5700 11.1042
44.5800 3.5383
44.5900 13.5151
44.6000 14.6809
44.6100 8.5321
44.6200 10.9607
44.6300 4.0148
44.6400 5.0157
44.6500 11.6345
44.6600 7.8536
44.6700 4.4674
44.6800 11.5023
44.6900 13.8061
44.7000 11.6383
44.7100 8.4385
44.7200 16.8947
44.7300 9.8338
44.7400 11.7145
44.7500 11.3915
44.7600 8.8660
44.7700 12.9018
44.7800 11.4688
44.7900 10.3203
44.8000 7.6968
44.8100 6.4968
44.8200 7.6304
44.8300 13.0367
44.8400 10.3359
44.8500 8.0427
44.8600 12.5563
44.8700 9.1711
44.8800 9.6823
44.8900 16.1144
44.9000 15.1678
44.9100 13.3075
44.9200 15.3417
44.9300 12.7521
44.9400 13.2612
44.9500 12.7590
44.9600 13.8799
44.9700 14.9444
44.9800 9.2344
44.9900 14.1835
45.0000 5.0754
45.0100 12.2753
45.0200 6.3590
45.0300 19.6202
45.0400 12.6498
45.0500 14.2592
45.0600 7.2740
45.0700 9.9527
45.0800 9.7799
45.0900 8.3297
45.1000 14.3384
45.1100 10.1109
45.1200 10.7430
45.1300 6.7704
45.1400 9.0111
45.1500 21.4531
45.1600 18.0717
45.1700 14.6618
45.1800 16.8610
45.1900 15.0325
45.2000 11.5851
45.2100 16.1400
45.2200 15.2774
45.2300 21.3830
45.2400 20.5567
45.2500 22.9836
45.2600 19.5930
45.2700 22.4548
45.2800 20.7528
45.2900 24.4377
45.3000 34.8156
45.3100 32.2200
45.3200 24.2328
45.3300 25.5493
45.3400 25.3432
45.3500 44.7468
45.3600 44.2172
45.3700 58.2253
45.3800 57.5805
45.3900 78.1257
45.4000 73.8938
45.4100 101.6914
45.4200 129.1437
45.4300 208.8119
45.4400 256.9732
45.4500 312.2590
45.4600 338.9435
45.4700 465.6010
45.4800 491.7900
45.4900 571.7944
45.5000 636.8699
45.5100 683.9842
45.5200 691.3959
45.5300 726.1429
45.5400 659.2290
45.5500 635.9283
45.5600 570.6791
45.5700 502.4271
45.5800 427.2277
45.5900 386.9951
45.6000 295.3570
45.6100 230.0431
45.6200 200.5479
45.6300 110.2180
45.6400 98.8356
45.6500 74.7699
45.6600 74.2140
45.6700 61.9934
45.6800 43.0828
45.6900 34.2049
45.7000 46.0480
45.7100 40.2792
45.7200 24.6397
45.7300 25.9722
45.7400 19.1350
45.7500 14.3522
45.7600 21.0760
45.7700 16.8118
45.7800 19.5784
45.7900 9.4760
45.8000 10.8967
45.8100 12.6090
45.8200 15.5828
45.8300 9.5662
45.8400 12.8752
45.8500 8.9503
45.8600 9.1136
45.8700 8.7924
45.8800 12.2977
45.8900 18.3081
45.9000 10.1033
45.9100 7.4997
45.9200 12.7036
45.9300 9.9648
45.9400 9.2246
45.9500 9.9570
45.9600 16.2785
45.9700 12.9539
45.9800 10.5500
45.9900 10.5342
46.0000 17.7783
46.0100 14.1660
46.0200 16.7332
46.0300 7.6962
46.0400 8.8826
46.0500 9.3022
46.0600 18.4592
46.0700 14.3024
46.0800 10.8502
46.0900 8.3699
46.1000 10.6765
46.1100 10.8643
46.1200 7.5820
46.1300 7.4025
46.1400 6.9767
46.1500 9.4423
46.1600 11.2740
46.1700 10.8070
46.1800 7.4574
46.1900 8.2300
46.2000 14.3287
46.2100 5.2335
46.2200 8.6453
46.2300 9.6954
46.2400 8.5594
46.2500 7.8611
46.2600 15.0268
46.2700 11.0001
46.2800 3.1231
46.2900 5.1647
46.3000 10.0484
46.3100 13.2395
46.3200 7.9884
46.3300 10.0595
46.3400 10.6034
46.3500 15.9861
46.3600 5.9858
46.3700 13.4662
46.3800 11.2950
46.3900 12.1516
46.4000 9.9986
46.4100 6.2306
46.4200 8.7966
46.4300 9.2839
46.4400 4.1310
46.4500 7.3811
46.4600 10.0848
46.4700 10.2478
46.4800 11.6082
46.4900 10.9618
46.5000 11.1191
46.5100 9.7885
46.5200 8.3009
46.5300 12.5135
46.5400 6.4051
46.5500 11.7965
46.5600 5.9760
46.5700 10.3315
46.5800 6.4824
46.5900 10.6746
46.6000 7.9036
46.6100 13.8904
46.6200 7.2513
46.6300 13.0075
46.6400 11.0633
46.6500 7.5682
46.6600 12.4530
46.6700 12.5181
46.6800 8.2675
46.6900 9.1219
46.7000 10.9847
46.7100 7.4171
46.7200 10.9654
46.7300 10.2788
46.7400 10.4035
46.7500 16.1946
46.7600 11.5990
46.7700 8.0845
46.7800 9.8202
46.7900 9.1597
46.8000 2.8597
46.8100 15.2297
46.8200 7.0843
46.8300 7.5382
46.8400 9.1910
46.8500 8.2291
46.8600 11.4293
46.8700 18.0501
46.8800 18.7829
46.8900 14.5021
46.9000 16.8060
46.9100 16.8528
46.9200 9.8731
46.9300 13.9605
46.9400 13.0587
46.9500 6.9503
46.9600 9.1878
46.9700 7.7458
46.9800 12.1476
46.9900 5.1279
47.0000 5.3843
47.0100 10.8102
47.0200 15.9741
47.0300 6.9769
47.0400 14.4500
47.0500 13.4552
47.0600 9.7335
47.0700 7.5430
47.0800 6.7677
47.0900 13.1170
47.1000 6.8649
47.1100 14.2133
47.1200 7.0306
47.1300 5.0676
47.1400 11.4542
47.1500 6.5743
47.1600 7.1060
47.1700 5.0401
47.1800 7.3409
47.1900 9.7140
47.2000 12.1377
47.2100 8.1510
47.2200 9.2792
47.2300 13.0369
47.2400 6.1856
47.2500 5.6176
47.2600 10.5117
47.2700 7.9099
47.2800 6.5576
47.2900 7.6557
47.3000 9.7369
47.3100 12.4640
47.3200 10.2644
47.3300 6.0214
47.3400 7.2912
47.3500 13.8062
47.3600 4.3450
47.3700 14.0214
47.3800 8.2669
47.3900 11.9198
47.4000 6.2703
47.4100 10.5828
47.4200 11.0850
47.4300 12.2353
47.4400 9.3462
47.4500 8.0820
47.4600 15.4135
47.4700 12.6475
47.4800 10.2115
47.4900 8.4575
47.5000 12.5475
47.5100 10.1785
47.5200 7.1997
47.5300 7.3338
47.5400 14.0097
47.5500 8.6470
47.5600 9.8463
47.5700 7.2407
47.5800 7.1099
47.5900 5.1186
47.6000 5.8888
47.6100 9.2069
47.6200 9.9897
47.6300 4.6488
47.6400 7.3203
47.6500 13.2942
47.6600 8.6588
47.6700 11.6088
47.6800 8.8488
47.6900 9.5294
47.7000 10.2963
47.7100 8.5135
47.7200 11.4731
47.7300 7.5710
47.7400 8.0265
47.7500 11.6649
47.7600 8.3685
47.7700 8.9406
47.7800 12.4947
47.7900 10.5013
47.8000 13.0847
47.8100 9.4005
47.8200 7.7687
47.8300 8.8337
47.8400 7.8809
47.8500 11.0362
47.8600 11.2218
47.8700 7.6285
47.8800 11.3073
47.8900 4.6995
47.9000 10.2394
47.9100 7.0953
47.9200 5.4911
47.9300 10.5191
47.9400 8.4376
47.9500 9.9014
47.9600 10.7391
47.9700 11.6796
47.9800 8.2718
47.9900 6.7229
48.0000 14.0720
48.0100 10.0595
48.0200 10.9142
48.0300 6.5201
48.0400 10.7911
48.0500 6.4313
48.0600 9.5583
48.0700 5.0478
48.0800 13.4197
48.0900 10.6105
48.1000 7.5112
48.1100 11.6585
48.1200 7.2067
48.1300 7.3227
48.1400 8.6866
48.1500 11.4647
48.1600 8.7383
48.1700 11.9325
48.1800 10.6358
48.1900 15.1461
48.2000 6.9972
48.2100 11.4561
48.2200 7.4422
48.2300 7.6949
48.2400 10.0915
48.2500 9.9671
48.2600 7.6820
48.2700 10.3910
48.2800 7.4469
48.2900 8.2666
48.3000 7.7745
48.3100 6.6048
48.3200 14.6356
48.3300 8.2560
48.3400 5.3863
48.3500 13.1513
48.3600 4.6535
48.3700 10.6515
48.3800 3.5963
48.3900 5.9811
48.4000 10.2445
48.4100 8.4146
48.4200 13.0674
48.4300 8.8565
48.4400 7.9140
48.4500 11.4524
48.4600 10.2867
48.4700 9.8186
48.4800 6.3243
48.4900 9.8298
48.5000 5.9274
48.5100 11.6922
48.5200 12.9588
48.5300 9.7286
48.5400 13.3450
48.5500 13.3580
48.5600 7.1597
48.5700 17.4807
48.5800 8.1496
48.5900 12.8067
48.6000 7.9302
48.6100 13.7339
48.6200 6.3997
48.6300 8.0462
48.6400 6.3314
48.6500 8.1809
48.6600 10.7606
48.6700 12.3869
48.6800 11.8513
48.6900 8.6844
48.7000 11.3497
48.7100 8.8721
48.7200 9.2798
48.7300 6.3790
48.7400 7.3768
48.7500 11.3551
48.7600 10.7005
48.7700 8.9781
48.7800 9.6220
48.7900 11.2093
48.8000 9.4974
48.8100 8.0789
48.8200 8.1848
48.8300 4.3272
48.8400 9.2451
48.8500 6.1759
48.8600 6.5548
48.8700 7.2713
48.8800 4.7165
48.8900 2.7171
48.9000 6.6432
48.9100 6.1462
48.9200 11.2895
48.9300 13.3598
48.9400 5.6614
48.9500 7.1616
48.9600 10.4536
48.9700 10.9744
48.9800 12.5347
48.9900 8.9463
49.0000 6.3885
49.0100 11.9429
49.0200 13.9844
49.0300 14.8991
49.0400 7.9431
49.0500 7.6130
49.0600 9.3857
49.0700 11.4491
49.0800 9.8171
49.0900 8.7264
49.1000 6.5758
49.1100 7.7844
49.1200 5.8781
49.1300 5.7162
49.1400 10.2163
49.1500 13.3617
49.1600 13.2937
49.1700 8.3090
49.1800 7.6329
49.1900 10.3190
49.2000 7.7196
49.2100 7.0648
49.2200 9.6860
49.2300 4.3674
49.2400 7.6137
49.2500 5.4557
49.2600 4.3340
49.2700 10.4512
49.2800 14.3008
49.2900 8.1308
49.3000 12.2397
49.3100 6.0652
49.3200 12.0410
49.3300 7.1387
49.3400 11.7416
49.3500 6.2148
49.3600 11.0461
49.3700 4.7455
49.3800 15.1339
49.3900 11.6415
49.4000 10.8757
49.4100 7.3449
49.4200 13.0876
49.4300 12.1745
49.4400 9.6257
49.4500 9.8305
49.4600 5.1050
49.4700 9.0736
49.4800 8.6756
49.4900 18.2973
49.5000 12.3154
49.5100 19.9857
49.5200 19.8711
49.5300 11.2526
49.5400 11.4355
49.5500 8.5365
49.5600 9.0760
49.5700 7.4045
49.5800 10.2490
49.5900 11.2842
49.6000 8.6899
49.6100 7.5601
49.6200 11.0210
49.6300 7.8233
49.6400 10.0288
49.6500 9.1393
49.6600 9.0287
49.6700 13.9255
49.6800 8.1698
49.6900 10.2721
49.7000 7.3001
49.7100 9.6441
49.7200 6.4237
49.7300 10.8258
49.7400 5.8804
49.7500 7.1673
49.7600 6.5309
49.7700 9.3750
49.7800 8.9645
49.7900 8.4351
49.8000 12.4970
49.8100 12.3957
49.8200 6.6888
49.8300 5.6017
49.8400 7.9101
49.8500 12.7616
49.8600 11.8215
49.8700 13.0898
49.8800 9.8720
49.8900 8.0438
49.9000 14.1129
49.9100 11.1963
49.9200 13.3911
49.9300 15.4141
49.9400 8.5772
49.9500 11.7303
49.9600 10.7707
49.9700 11.5696
49.9800 12.7834
49.9900 12.4134
50.0000 10.2289
50.0100 10.5824
50.0200 9.1423
50.0300 5.7510
50.0400 11.2494
50.0500 8.7704
50.0600 6.0541
50.0700 7.7471
50.0800 4.5675
50.0900 1.2260
50.1000 10.6765
50.1100 7.6485
50.1200 5.3676
50.1300 8.7510
50.1400 8.8563
50.1500 11.5644
50.1600 2.8671
50.1700 8.9205
50.1800 8.0340
50.1900 9.7457
50.2000 8.8967
50.2100 12.5715
50.2200 6.2634
50.2300 9.4625
50.2400 9.6898
50.2500 16.0990
50.2600 13.6005
50.2700 5.3437
50.2800 7.6509
50.2900 16.5016
50.3000 9.4601
50.3100 15.4396
50.3200 3.8541
50.3300 10.8915
50.3400 9.5936
50.3500 9.2314
50.3600 10.1163
50.3700 6.6722
50.3800 10.9441
50.3900 14.6517
50.4000 9.2187
50.4100 7.7465
50.4200 7.5908
50.4300 10.1943
50.4400 4.8423
50.4500 12.9648
50.4600 11.3522
50.4700 9.5239
50.4800 14.4529
50.4900 7.1298
50.5000 10.2418
50.5100 4.1188
50.5200 7.7081
50.5300 10.0274
50.5400 10.2674
50.5500 8.0366
50.5600 8.6752
50.5700 6.1392
50.5800 7.0302
50.5900 15.0729
50.6000 12.8361
50.6100 13.6749
50.6200 14.2569
50.6300 10.5077
50.6400 11.4999
50.6500 9.3466
50.6600 11.7616
50.6700 13.2589
50.6800 11.4062
50.6900 8.4850
50.7000 6.2763
50.7100 10.1881
50.7200 4.9822
50.7300 4.6053
50.7400 6.2390
50.7500 14.3377
50.7600 6.5689
50.7700 11.1297
50.7800 4.9817
50.7900 5.3290
50.8000 5.8825
50.8100 6.2378
50.8200 4.9834
50.8300 8.3642
50.8400 7.5687
50.8500 12.2569
50.8600 11.6675
50.8700 11.7383
50.8800 9.1322
50.8900 6.8791
50.9000 9.7309
50.9100 11.8709
50.9200 14.8701
50.9300 5.2540
50.9400 7.5812
50.9500 12.0464
50.9600 8.4575
50.9700 5.4184
50.9800 6.2255
50.9900 6.4640
51.0000 8.0211
51.0100 9.4960
51.0200 11.7334
51.0300 12.4305
51.0400 10.9404
51.0500 16.6822
51.0600 9.9106
51.0700 11.3296
51.0800 9.6326
51.0900 9.7287
51.1000 9.9241
51.1100 9.3690
51.1200 11.1771
51.1300 10.1562
51.1400 10.8654
51.1500 11.6132
51.1600 11.4413
51.1700 10.3544
51.1800 7.7040
51.1900 8.8269
51.2000 9.5793
51.2100 7.5929
51.2200 16.9470
51.2300 11.2175
51.2400 12.7342
51.2500 10.1528
51.2600 11.5380
51.2700 7.3557
51.2800 9.1784
51.2900 7.3520
51.3000 6.8461
51.3100 9.3342
51.3200 8.4514
51.3300 8.8434
51.3400 9.1642
51.3500 6.1654
51.3600 8.7780
51.3700 3.4388
51.3800 8.3615
51.3900 8.8133
51.4000 6.1758
51.4100 6.0767
51.4200 13.0641
51.4300 4.8978
51.4400 9.9479
51.4500 6.9699
51.4600 7.1000
51.4700 7.3004
51.4800 10.7524
51.4900 8.3778
51.5000 8.1119
51.5100 7.6633
51.5200 12.5834
51.5300 7.1182
51.5400 6.4226
51.5500 7.7996
51.5600 4.8703
51.5700 15.3583
51.5800 12.3605
51.5900 6.3552
51.6000 10.0225
51.6100 7.5255
51.6200 6.3718
51.6300 7.7346
51.6400 8.0120
51.6500 10.2274
51.6600 6.7036
51.6700 7.6387
51.6800 13.9735
51.6900 9.7717
51.7000 9.3348
51.7100 7.2987
51.7200 7.7370
51.7300 12.5694
51.7400 5.4167
51.7500 9.2517
51.7600 10.6381
51.7700 10.0365
51.7800 8.6195
51.7900 7.1988
51.8000 7.8835
51.8100 9.3778
51.8200 7.7444
51.8300 7.7789
51.8400 11.8605
51.8500 12.1421
51.8600 9.6568
51.8700 5.3716
51.8800 6.7308
51.8900 8.3505
51.9000 9.5152
51.9100 7.6283
51.9200 12.2638
51.9300 5.5546
51.9400 7.1784
51.9500 7.6525
51.9600 6.5760
51.9700 7.2893
51.9800 10.7403
51.9900 7.9657
52.0000 16.3593
52.0100 11.2294
52.0200 7.2385
52.0300 10.4868
52.0400 11.0349
52.0500 7.9634
52.0600 8.7784
52.0700 10.9042
