#Collected Data-263
#Intensity_unit=counts
#Attenuator_coefficient=1.000000
40.0000 29.9960
40.0500 22.8377
40.1000 31.0578
40.1500 31.9121
40.2000 34.8950
40.2500 32.6881
40.3000 29.7056
40.3500 34.4977
40.4000 22.4641
40.4500 27.0839
40.5000 26.2283
40.5500 29.2316
40.6000 26.0473
40.6500 20.5443
40.7000 25.4998
40.7500 12.8898
40.8000 35.0757
40.8500 34.0625
40.9000 30.9770
40.9500 35.6287
41.0000 31.5114
41.0500 22.5414
41.1000 16.9367
41.1500 34.6590
41.2000 23.6141
41.2500 22.4341
41.3000 37.2269
41.3500 23.2762
41.4000 34.7598
41.4500 34.3663
41.5000 29.4591
41.5500 33.5883
41.6000 35.2690
41.6500 30.6177
41.7000 29.8033
41.7500 22.3034
41.8000 39.0063
41.8500 29.9819
41.9000 23.8454
41.9500 22.8654
42.0000 30.2567
42.0500 31.1330
42.1000 24.9215
42.1500 32.3479
42.2000 33.3507
42.2500 25.2073
42.3000 26.4870
42.3500 32.5128
42.4000 29.4312
42.4500 37.1044
42.5000 24.9833
42.5500 35.7275
42.6000 26.5163
42.6500 36.8411
42.7000 30.2907
42.7500 19.6698
42.8000 35.8492
42.8500 31.5151
42.9000 21.5187
42.9500 20.7292
43.0000 27.4384
43.0500 32.3750
43.1000 28.1296
43.1500 27.2889
43.2000 39.7320
43.2500 35.4222
43.3000 36.3022
43.3500 29.3020
43.4000 40.7456
43.4500 34.3866
43.5000 30.7518
43.5500 27.6479
43.6000 36.2038
43.6500 37.9736
43.7000 33.9973
43.7500 29.2370
43.8000 33.2045
43.8500 42.7826
43.9000 45.2307
43.9500 34.9043
44.0000 56.7670
44.0500 69.5883
44.1000 56.4923
44.1500 94.9750
44.2000 98.5249
44.2500 147.2219
44.3000 212.6046
44.3500 335.7702
44.4000 507.2636
44.4500 706.9814
44.5000 953.2943
44.5500 976.8459
44.6000 734.9437
44.6500 449.5034
44.7000 243.4137
44.7500 143.9956
44.8000 86.1563
44.8500 78.2841
44.9000 57.8912
44.9500 44.3546
45.0000 45.5281
45.0500 35.0168
45.1000 36.8925
45.1500 27.4260
45.2000 28.4097
45.2500 35.6748
45.3000 35.0746
45.3500 28.4469
45.4000 36.5233
45.4500 32.5433
45.5000 30.5739
45.5500 28.6182
45.6000 19.5375
45.6500 21.0662
45.7000 26.8218
45.7500 25.8018
45.8000 27.6040
45.8500 26.2289
45.9000 32.0454
45.9500 32.0965
46.0000 31.0107
46.0500 30.1213
46.1000 19.8476
46.1500 35.0858
46.2000 23.6946
46.2500 26.6582
46.3000 22.7212
46.3500 29.0923
46.4000 34.3040
46.4500 32.0768
46.5000 22.9215
46.5500 23.8438
46.6000 23.1728
46.6500 30.2441
46.7000 29.8703
46.7500 25.8465
46.8000 24.6623
46.8500 24.1473
46.9000 17.0624
46.9500 21.7698
47.0000 26.7881
47.0500 33.5231
47.1000 30.1451
47.1500 24.9557
47.2000 11.2191
47.2500 29.9279
47.3000 33.2360
47.3500 33.8787
47.4000 35.5933
47.4500 30.9353
47.5000 21.2548
47.5500 22.4090
47.6000 25.6378
47.6500 27.4897
47.7000 28.7419
47.7500 18.7658
47.8000 21.6792
47.8500 26.8186
47.9000 20.4348
47.9500 25.7799
48.0000 40.9841
48.0500 24.8533
48.1000 22.9861
48.1500 23.8158
48.2000 28.2041
48.2500 28.0514
48.3000 35.4373
48.3500 27.5754
48.4000 22.9885
48.4500 25.5076
48.5000 26.9719
48.5500 25.6854
48.6000 23.0286
48.6500 18.1074
48.7000 27.8673
48.7500 31.3698
48.8000 19.6352
48.8500 24.8009
48.9000 16.6146
48.9500 18.4037
49.0000 22.2907
49.0500 21.8599
49.1000 24.5544
49.1500 19.8008
49.2000 20.8923
49.2500 23.3336
49.3000 20.0097
49.3500 23.3534
49.4000 34.9018
49.4500 28.7999
49.5000 30.7226
49.5500 21.1000
49.6000 24.9951
49.6500 26.3829
49.7000 34.0731
49.7500 25.8581
49.8000 18.8260
49.8500 27.3133
49.9000 24.8190
49.9500 27.1254
50.0000 27.5754
50.0500 17.8935
50.1000 31.6331
50.1500 23.2109
50.2000 22.9003
50.2500 33.1905
50.3000 24.1868
50.3500 31.1957
50.4000 23.5616
50.4500 29.6297
50.5000 25.7842
50.5500 23.0747
50.6000 18.9301
50.6500 24.0411
50.7000 27.1439
50.7500 22.2478
50.8000 32.6091
50.8500 23.8676
50.9000 26.9988
50.9500 26.4642
51.0000 25.8360
51.0500 24.1230
51.1000 28.2469
51.1500 22.9461
51.2000 28.0278
51.2500 28.5025
51.3000 27.0851
51.3500 17.9398
51.4000 22.2281
51.4500 23.7965
51.5000 32.8875
51.5500 26.0702
51.6000 21.7547
51.6500 23.2408
51.7000 28.8035
51.7500 18.1196
51.8000 24.2925
51.8500 22.4506
51.9000 25.5026
51.9500 21.8052
52.0000 33.3630
52.0500 14.6658
52.1000 25.8926
52.1500 24.8217
52.2000 21.6948
52.2500 27.8734
52.3000 25.5484
52.3500 27.3382
52.4000 28.6800
52.4500 22.8691
52.5000 26.1698
52.5500 17.8065
52.6000 25.1003
52.6500 25.1942
52.7000 25.0361
52.7500 16.0522
52.8000 25.5937
52.8500 17.1626
52.9000 23.6936
52.9500 31.0586
53.0000 23.3700
53.0500 24.4010
53.1000 26.5658
53.1500 24.1002
53.2000 34.2069
53.2500 30.2499
53.3000 22.2438
53.3500 21.6279
53.4000 31.3555
53.4500 27.0603
53.5000 29.8414
53.5500 18.6351
53.6000 36.0748
53.6500 22.6455
53.7000 29.5177
53.7500 31.9630
53.8000 17.7020
53.8500 26.9193
53.9000 29.5097
53.9500 22.5234
54.0000 21.2349
54.0500 23.5997
54.1000 20.5716
54.1500 18.4365
54.2000 21.1258
54.2500 28.0450
54.3000 34.9055
54.3500 35.8563
54.4000 28.6911
54.4500 25.5743
54.5000 22.9131
54.5500 26.2740
54.6000 23.5485
54.6500 25.2662
54.7000 20.5305
54.7500 19.4897
54.8000 24.9121
54.8500 21.4589
54.9000 25.2616
54.9500 23.8818
55.0000 23.1672
55.0500 34.1287
55.1000 26.0279
55.1500 17.5487
55.2000 22.9010
55.2500 24.6320
55.3000 22.8287
55.3500 29.6678
55.4000 30.2067
55.4500 31.5657
55.5000 19.1945
55.5500 21.9244
55.6000 29.7083
55.6500 34.4107
55.7000 16.0963
55.7500 34.0211
55.8000 27.6956
55.8500 22.5092
55.9000 22.5240
55.9500 22.8985
56.0000 25.9833
56.0500 20.3432
56.1000 16.5617
56.1500 31.0836
56.2000 29.7157
56.2500 22.0909
56.3000 25.8589
56.3500 30.3104
56.4000 22.8105
56.4500 21.8433
56.5000 21.9349
56.5500 28.9634
56.6000 29.7367
56.6500 22.6524
56.7000 24.2872
56.7500 28.6213
56.8000 24.2101
56.8500 15.2603
56.9000 16.7590
56.9500 21.6427
57.0000 25.1851
57.0500 26.4305
57.1000 20.2360
57.1500 27.3389
57.2000 38.8893
57.2500 21.3946
57.3000 23.7895
57.3500 21.7160
57.4000 26.3721
57.4500 23.9662
57.5000 23.6126
57.5500 22.5746
57.6000 20.6358
57.6500 28.0196
57.7000 33.0985
57.7500 33.1472
57.8000 27.6514
57.8500 22.2645
57.9000 18.1424
57.9500 28.5755
58.0000 14.9491
58.0500 32.1167
58.1000 22.2088
58.1500 21.5415
58.2000 22.1357
58.2500 23.5535
58.3000 18.7307
58.3500 21.5311
58.4000 36.9238
58.4500 15.9378
58.5000 30.5490
58.5500 22.5968
58.6000 23.7253
58.6500 26.8278
58.7000 34.0564
58.7500 25.3296
58.8000 18.7719
58.8500 28.7530
58.9000 18.2263
58.9500 30.7833
59.0000 19.8697
59.0500 17.0472
59.1000 30.4330
59.1500 19.0014
59.2000 20.8821
59.2500 26.7359
59.3000 27.0589
59.3500 19.7701
59.4000 18.1895
59.4500 28.5501
59.5000 27.0188
59.5500 28.5780
59.6000 24.6701
59.6500 23.7622
59.7000 21.2859
59.7500 28.2572
59.8000 23.2970
59.8500 29.4430
59.9000 18.4917
59.9500 28.3738
60.0000 28.9030
60.0500 25.9195
60.1000 23.4253
60.1500 15.5956
60.2000 26.5419
60.2500 25.4735
60.3000 29.3021
60.3500 30.9822
60.4000 19.6376
60.4500 21.2746
60.5000 23.5356
60.5500 23.4919
60.6000 27.5298
60.6500 26.0561
60.7000 21.3734
60.7500 12.4759
60.8000 22.8639
60.8500 19.9863
60.9000 24.0558
60.9500 26.4857
61.0000 28.3411
61.0500 18.0654
61.1000 26.7177
61.1500 22.2871
61.2000 23.6990
61.2500 28.7052
61.3000 28.5253
61.3500 21.2054
61.4000 20.6534
61.4500 18.6668
61.5000 18.0612
61.5500 30.8915
61.6000 21.7275
61.6500 26.5751
61.7000 24.6227
61.7500 37.2832
61.8000 29.3625
61.8500 36.4020
61.9000 21.2499
61.9500 28.2466
62.0000 21.2472
62.0500 17.6285
62.1000 28.4453
62.1500 30.6293
62.2000 23.0477
62.2500 25.9261
62.3000 28.0894
62.3500 20.9256
62.4000 29.2942
62.4500 17.0894
62.5000 17.2371
62.5500 32.8158
62.6000 21.6273
62.6500 21.4653
62.7000 21.1457
62.7500 15.8023
62.8000 19.9339
62.8500 21.9743
62.9000 17.2494
62.9500 24.8630
63.0000 23.2848
63.0500 24.4494
63.1000 35.4555
63.1500 23.2001
63.2000 19.7228
63.2500 25.2921
63.3000 18.1712
63.3500 22.5101
63.4000 24.8498
63.4500 22.1676
63.5000 22.1907
63.5500 27.1317
63.6000 27.1116
63.6500 26.8337
63.7000 33.7087
63.7500 28.2991
63.8000 28.2463
63.8500 26.5923
63.9000 28.0751
63.9500 19.4311
64.0000 20.7277
64.0500 41.7234
64.1000 37.5579
64.1500 28.3787
64.2000 31.2493
64.2500 32.9725
64.3000 28.5075
64.3500 32.1779
64.4000 32.2712
64.4500 40.0134
64.5000 47.5275
64.5500 61.1045
64.6000 62.6958
64.6500 61.6566
64.7000 62.1285
64.7500 53.5352
64.8000 39.9069
64.8500 44.0664
64.9000 47.8899
64.9500 39.5273
65.0000 30.2775
65.0500 36.1388
65.1000 24.2576
65.1500 14.2147
65.2000 29.2446
65.2500 25.5729
65.3000 36.2629
65.3500 30.3446
65.4000 27.9595
65.4500 25.7797
65.5000 23.2099
65.5500 24.8610
65.6000 17.6736
65.6500 22.6577
65.7000 32.3601
65.7500 18.9835
65.8000 24.1522
65.8500 24.7255
65.9000 18.5339
65.9500 38.5213
66.0000 16.3132
66.0500 20.8212
66.1000 23.0273
66.1500 23.3976
66.2000 14.2963
66.2500 27.8309
66.3000 23.0471
66.3500 23.4228
66.4000 23.8199
66.4500 23.9117
66.5000 20.2258
66.5500 27.3627
66.6000 25.4542
66.6500 18.6256
66.7000 24.7705
66.7500 16.9333
66.8000 28.2969
66.8500 15.2183
66.9000 23.9265
66.9500 21.8505
67.0000 23.4593
67.0500 28.3965
67.1000 19.7387
67.1500 25.7333
67.2000 20.8971
67.2500 23.1695
67.3000 24.9559
67.3500 26.5131
67.4000 16.6390
67.4500 20.2638
67.5000 25.3615
67.5500 23.0793
67.6000 22.1059
67.6500 22.3442
67.7000 18.9627
67.7500 16.0163
67.8000 19.6983
67.8500 25.2199
67.9000 14.6227
67.9500 21.1355
68.0000 19.6925
68.0500 29.4445
68.1000 17.1957
68.1500 20.2677
68.2000 30.6152
68.2500 17.8837
68.3000 20.9357
68.3500 29.8678
68.4000 30.2072
68.4500 16.5934
68.5000 19.4620
68.5500 21.0207
68.6000 22.8655
68.6500 23.2834
68.7000 26.1282
68.7500 19.4977
68.8000 18.9168
68.8500 23.1432
68.9000 12.3342
68.9500 25.2192
69.0000 17.7569
69.0500 22.3348
69.1000 21.2924
69.1500 19.4050
69.2000 25.4663
69.2500 15.9687
69.3000 24.3172
69.3500 25.5575
69.4000 27.0393
69.4500 20.1383
69.5000 18.3545
69.5500 24.7554
69.6000 29.4390
69.6500 28.3982
69.7000 29.4131
69.7500 18.7054
69.8000 33.0331
69.8500 18.5968
69.9000 19.3421
69.9500 22.4189
70.0000 20.4694
70.0500 31.1991
70.1000 26.1707
70.1500 26.4709
70.2000 19.8124
70.2500 15.6772
70.3000 33.9565
70.3500 26.5104
70.4000 21.4127
70.4500 19.1206
70.5000 20.8273
70.5500 19.7922
70.6000 20.0648
70.6500 14.1645
70.7000 27.0627
70.7500 24.4439
70.8000 26.5134
70.8500 28.3219
70.9000 18.7824
70.9500 27.3294
71.0000 19.0844
71.0500 21.6057
71.1000 21.5401
71.1500 26.7406
71.2000 28.9756
71.2500 24.5236
71.3000 19.2475
71.3500 21.3325
71.4000 11.7560
71.4500 22.1461
71.5000 32.8856
71.5500 27.1282
71.6000 19.0730
71.6500 24.2677
71.7000 21.0295
71.7500 22.5454
71.8000 27.5038
71.8500 29.9835
71.9000 31.6624
71.9500 24.5977
72.0000 14.9439
72.0500 21.7580
72.1000 23.4817
72.1500 15.7678
72.2000 22.2816
72.2500 30.8098
72.3000 26.5754
72.3500 20.5405
72.4000 25.3204
72.4500 22.7375
72.5000 19.0877
72.5500 27.3560
72.6000 13.8814
72.6500 18.1499
72.7000 32.9736
72.7500 23.8173
72.8000 32.4630
72.8500 13.9304
72.9000 10.2300
72.9500 22.4268
73.0000 22.1545
73.0500 20.3323
73.1000 25.9092
73.1500 25.6777
73.2000 16.8934
73.2500 20.7948
73.3000 31.7174
73.3500 19.5832
73.4000 21.5145
73.4500 17.3738
73.5000 28.5580
73.5500 21.8337
73.6000 12.8794
73.6500 22.9682
73.7000 23.2436
73.7500 17.4092
73.8000 23.7954
73.8500 26.6650
73.9000 19.9996
73.9500 21.2398
74.0000 15.9039
74.0500 20.0528
74.1000 15.5933
74.1500 19.4617
74.2000 19.4718
74.2500 27.3516
74.3000 29.3407
74.3500 23.0137
74.4000 22.3912
74.4500 25.2013
74.5000 24.6308
74.5500 28.3106
74.6000 21.6400
74.6500 16.4592
74.7000 19.7620
74.7500 20.2757
74.8000 35.1608
74.8500 28.4947
74.9000 27.1476
74.9500 31.4376
75.0000 23.4169
75.0500 25.8755
75.1000 21.3612
75.1500 25.3746
75.2000 21.5759
75.2500 28.0381
75.3000 29.0884
75.3500 21.6664
75.4000 17.3263
75.4500 25.6624
75.5000 19.8409
75.5500 24.0305
75.6000 21.8502
75.6500 21.9006
75.7000 26.9263
75.7500 13.9857
75.8000 33.3819
75.8500 24.5344
75.9000 28.8546
75.9500 19.6700
76.0000 24.3043
76.0500 22.8535
76.1000 21.9976
76.1500 23.8476
76.2000 15.1660
76.2500 21.1494
76.3000 24.6374
76.3500 19.9400
76.4000 23.7575
76.4500 17.7513
76.5000 18.2191
76.5500 25.1602
76.6000 16.6213
76.6500 28.1779
76.7000 24.7891
76.7500 16.1972
76.8000 24.4239
76.8500 21.6523
76.9000 22.4694
76.9500 20.5901
77.0000 20.4973
77.0500 34.4038
77.1000 22.1124
77.1500 25.0068
77.2000 20.9854
77.2500 17.8111
77.3000 17.8631
77.3500 25.2564
77.4000 23.6178
77.4500 29.3267
77.5000 23.6804
77.5500 31.3573
77.6000 22.5302
77.6500 23.5817
77.7000 16.4797
77.7500 27.6719
77.8000 19.7264
77.8500 20.8462
77.9000 28.1023
77.9500 22.2555
78.0000 22.3174
78.0500 27.9786
78.1000 26.5857
78.1500 28.7661
78.2000 19.4983
78.2500 17.0684
78.3000 22.0800
78.3500 17.8678
78.4000 18.0930
78.4500 22.0969
78.5000 22.2233
78.5500 22.1422
78.6000 27.1305
78.6500 25.2438
78.7000 24.2080
78.7500 17.3640
78.8000 16.6622
78.8500 18.9747
78.9000 19.5103
78.9500 24.3831
79.0000 21.2759
79.0500 24.4635
79.1000 31.8312
79.1500 13.7599
79.2000 19.7809
79.2500 20.3971
79.3000 20.8571
79.3500 27.9544
79.4000 19.4156
79.4500 17.0726
79.5000 19.1590
79.5500 21.1470
79.6000 31.9376
79.6500 25.9285
79.7000 21.6910
79.7500 19.1037
79.8000 23.2006
79.8500 28.8168
79.9000 25.4372
79.9500 17.3146
80.0000 23.9062
80.0500 18.0570
80.1000 22.9502
80.1500 21.5816
80.2000 23.6951
80.2500 23.0603
80.3000 18.5730
80.3500 23.6747
80.4000 20.0064
80.4500 21.7344
80.5000 20.1240
80.5500 24.6504
80.6000 24.6666
80.6500 23.7010
80.7000 26.2534
80.7500 22.7749
80.8000 24.9775
80.8500 31.3123
80.9000 20.2337
80.9500 23.8817
81.0000 24.6133
81.0500 22.8146
81.1000 23.8831
81.1500 31.2094
81.2000 27.3848
81.2500 31.5303
81.3000 21.2298
81.3500 25.9690
81.4000 25.5532
81.4500 35.2214
81.5000 31.5875
81.5500 44.1397
81.6000 50.4790
81.6500 47.4906
81.7000 47.7857
81.7500 57.4147
81.8000 75.5033
81.8500 70.6496
81.9000 97.0289
81.9500 109.8417
82.0000 120.8720
82.0500 122.7320
82.1000 113.1882
82.1500 68.1135
82.2000 62.8867
82.2500 49.0486
82.3000 59.2515
82.3500 32.5668
82.4000 36.9245
82.4500 25.3848
82.5000 29.4538
82.5500 32.3422
82.6000 33.9439
82.6500 31.2429
82.7000 25.8293
82.7500 20.0184
82.8000 25.8435
82.8500 28.9004
82.9000 39.1151
82.9500 21.7667
83.0000 27.7511
83.0500 21.9957
83.1000 22.3645
83.1500 24.7255
83.2000 25.4126
83.2500 25.0712
83.3000 21.8122
83.3500 27.2563
83.4000 17.9752
83.4500 30.1437
83.5000 27.6347
83.5500 20.9248
83.6000 22.6328
83.6500 20.5738
83.7000 17.6618
83.7500 21.5208
83.8000 23.4976
83.8500 39.0502
83.9000 22.3363
83.9500 27.6701
84.0000 21.5078
84.0500 21.6782
84.1000 23.0280
84.1500 21.5079
84.2000 26.0526
84.2500 22.2977
84.3000 28.1780
84.3500 28.7601
84.4000 25.1102
84.4500 21.2838
84.5000 9.8679
84.5500 20.2034
84.6000 29.8049
84.6500 16.2106
84.7000 24.9736
84.7500 15.6149
84.8000 16.4306
84.8500 21.3124
84.9000 15.7035
84.9500 19.7454
85.0000 22.6445
85.0500 31.5569
85.1000 27.3404
85.1500 30.2917
85.2000 22.5374
85.2500 14.4471
85.3000 20.4226
85.3500 30.9970
85.4000 24.5864
85.4500 24.6530
85.5000 21.2933
85.5500 23.5536
85.6000 26.8736
85.6500 12.7538
85.7000 26.4445
85.7500 19.3779
85.8000 23.2632
85.8500 27.9669
85.9000 20.6915
85.9500 25.8344
86.0000 22.9217
86.0500 14.3089
86.1000 18.6688
86.1500 26.3242
86.2000 22.8281
86.2500 20.0281
86.3000 10.3323
86.3500 24.7124
86.4000 17.9279
86.4500 23.5835
86.5000 19.4131
86.5500 21.3505
86.6000 23.3070
86.6500 22.9039
86.7000 16.7805
86.7500 18.7961
86.8000 22.2711
86.8500 23.2676
86.9000 20.6129
86.9500 24.4841
87.0000 24.3229
87.0500 21.8042
87.1000 16.7372
87.1500 33.0290
87.2000 21.5346
87.2500 29.9214
87.3000 25.6939
87.3500 30.8045
87.4000 20.3308
87.4500 21.0666
87.5000 21.0130
87.5500 20.9417
87.6000 17.3081
87.6500 24.3655
87.7000 31.0433
87.7500 26.4369
87.8000 20.7481
87.8500 17.6676
87.9000 25.8961
87.9500 21.3093
88.0000 21.5842
88.0500 11.8943
88.1000 20.4616
88.1500 18.4371
88.2000 24.1671
88.2500 23.0292
88.3000 21.1161
88.3500 18.0626
88.4000 27.3280
88.4500 28.3588
88.5000 23.9250
88.5500 22.4059
88.6000 25.8594
88.6500 22.2304
88.7000 22.9173
88.7500 13.8409
88.8000 23.4417
88.8500 28.7706
88.9000 19.9354
88.9500 28.9182
89.0000 14.0537
89.0500 22.7369
89.1000 18.5127
89.1500 14.6047
89.2000 18.4798
89.2500 23.8709
89.3000 32.9469
89.3500 22.3692
89.4000 21.6826
89.4500 19.2468
89.5000 26.7172
89.5500 17.3015
89.6000 21.7548
89.6500 22.2991
89.7000 23.0913
89.7500 37.3373
89.8000 33.8514
89.8500 25.4153
89.9000 19.6874
89.9500 23.5255
90.0000 21.7167
90.0500 14.7734
90.1000 26.7211
90.1500 20.4369
90.2000 21.3663
90.2500 17.3944
90.3000 25.3691
90.3500 23.8193
90.4000 16.4933
90.4500 21.9293
90.5000 20.9150
90.5500 26.7113
90.6000 25.7854
90.6500 24.9813
90.7000 20.7618
90.7500 17.2972
90.8000 17.9324
90.8500 27.2750
90.9000 21.0555
90.9500 20.2870
91.0000 21.6224
91.0500 24.5867
91.1000 18.0536
91.1500 16.5206
91.2000 21.5804
91.2500 31.0570
91.3000 17.3645
91.3500 19.7943
91.4000 20.4019
91.4500 29.6863
91.5000 22.2285
91.5500 23.8507
91.6000 24.6457
91.6500 18.4126
91.7000 21.0605
91.7500 26.0594
91.8000 19.3106
91.8500 22.2305
91.9000 32.3716
91.9500 25.1422
92.0000 21.2152
92.0500 22.3964
92.1000 27.4307
92.1500 18.5112
92.2000 24.9081
92.2500 28.4599
92.3000 26.8289
92.3500 17.4208
92.4000 21.2164
92.4500 18.8870
92.5000 15.1146
92.5500 18.3966
92.6000 22.1308
92.6500 26.1841
92.7000 32.7135
92.7500 26.8529
92.8000 28.0228
92.8500 16.4744
92.9000 12.0617
92.9500 23.2117
93.0000 24.8855
93.0500 24.2970
93.1000 22.6792
93.1500 29.2951
93.2000 17.4483
93.2500 23.6131
93.3000 27.1384
93.3500 16.8876
93.4000 15.0449
93.4500 21.4923
93.5000 27.4390
93.5500 22.3508
93.6000 23.0932
93.6500 19.9202
93.7000 24.3114
93.7500 29.7034
93.8000 25.1904
93.8500 28.1862
93.9000 19.8782
93.9500 20.3647
94.0000 25.8218
94.0500 22.9853
94.1000 19.4116
94.1500 21.4047
94.2000 18.2117
94.2500 23.1164
94.3000 23.3239
94.3500 14.9345
94.4000 24.3984
94.4500 18.3046
94.5000 21.7175
94.5500 33.6691
94.6000 26.5227
94.6500 18.2671
94.7000 19.4209
94.7500 26.7532
94.8000 21.1362
94.8500 20.3504
94.9000 24.3292
94.9500 18.5602
95.0000 20.3425
95.0500 16.8028
95.1000 20.0346
95.1500 19.3844
95.2000 21.1469
95.2500 22.6205
95.3000 25.3480
95.3500 31.2067
95.4000 24.3145
95.4500 22.8167
95.5000 20.2580
95.5500 26.1594
95.6000 25.3884
95.6500 19.6659
95.7000 18.3935
95.7500 14.4733
95.8000 29.5596
95.8500 22.5816
95.9000 18.6923
95.9500 25.6981
96.0000 18.4289
96.0500 21.9835
96.1000 28.6898
96.1500 16.9377
96.2000 22.8943
96.2500 26.5978
96.3000 20.5513
96.3500 30.6521
96.4000 20.0272
96.4500 24.2623
96.5000 19.4732
96.5500 22.2810
96.6000 22.3520
96.6500 22.1327
96.7000 17.8502
96.7500 15.0420
96.8000 21.6203
96.8500 21.4140
96.9000 20.7021
96.9500 27.5316
97.0000 30.8269
97.0500 18.9056
97.1000 25.8287
97.1500 21.3158
97.2000 21.7691
97.2500 26.7910
97.3000 28.3003
97.3500 25.0841
97.4000 17.5930
97.4500 12.8960
97.5000 22.5900
97.5500 27.6312
97.6000 25.7584
97.6500 22.6418
97.7000 25.9066
97.7500 23.5336
97.8000 20.2104
97.8500 24.3924
97.9000 39.8869
97.9500 28.7360
98.0000 36.8183
98.0500 28.2948
98.1000 40.3378
98.1500 39.8070
98.2000 30.3733
98.2500 42.7508
98.3000 57.2037
98.3500 58.5634
98.4000 58.7402
98.4500 54.2075
98.5000 51.2357
